LRIS V FILTER, printed from ~mhc/keck/filters/filter_v.spc  
by mhc 9/8/97.  


Column     Wavelength      Value
  
  
       1     3700.0000       0.00000000E+00
       2     3702.4900       0.00000000E+00
       3     3704.9800       0.00000000E+00
       4     3707.4700       0.00000000E+00
       5     3709.9600       0.00000000E+00
       6     3712.4500       0.00000000E+00
       7     3714.9399       0.00000000E+00
       8     3717.4299       0.00000000E+00
       9     3719.9199       0.00000000E+00
      10     3722.4099       0.00000000E+00
      11     3724.8999       0.00000000E+00
      12     3727.3899       0.00000000E+00
      13     3729.8799       0.00000000E+00
      14     3732.3701       0.00000000E+00
      15     3734.8601       0.00000000E+00
      16     3737.3501       0.00000000E+00
      17     3739.8401       0.00000000E+00
      18     3742.3301       0.00000000E+00
      19     3744.8201       0.00000000E+00
      20     3747.3101       0.00000000E+00
      21     3749.8000       0.00000000E+00
      22     3752.2900       0.00000000E+00
      23     3754.7800       0.00000000E+00
      24     3757.2700       0.00000000E+00
      25     3759.7600       0.00000000E+00
      26     3762.2500       0.00000000E+00
      27     3764.7400       0.00000000E+00
      28     3767.2300       0.00000000E+00
      29     3769.7200       0.00000000E+00
      30     3772.2100       0.00000000E+00
      31     3774.7000       0.00000000E+00
      32     3777.1899       0.00000000E+00
      33     3779.6799       0.00000000E+00
      34     3782.1699       0.00000000E+00
      35     3784.6599       0.00000000E+00
      36     3787.1499       0.00000000E+00
      37     3789.6399       0.00000000E+00
      38     3792.1299       0.00000000E+00
      39     3794.6201       0.00000000E+00
      40     3797.1101       0.00000000E+00
      41     3799.6001       0.00000000E+00
      42     3802.0901       0.00000000E+00
      43     3804.5801       0.00000000E+00
      44     3807.0701       0.00000000E+00
      45     3809.5601       0.00000000E+00
      46     3812.0500       0.00000000E+00
      47     3814.5400       0.00000000E+00
      48     3817.0300       0.00000000E+00
      49     3819.5200       0.00000000E+00
      50     3822.0100       0.00000000E+00
      51     3824.5000       0.00000000E+00
      52     3826.9900       0.00000000E+00
      53     3829.4800       0.00000000E+00
      54     3831.9700       0.00000000E+00
      55     3834.4600       0.00000000E+00
      56     3836.9500       0.00000000E+00
      57     3839.4399       0.00000000E+00
      58     3841.9299       0.00000000E+00
      59     3844.4199       0.00000000E+00
      60     3846.9099       0.00000000E+00
      61     3849.3999       0.00000000E+00
      62     3851.8899       0.00000000E+00
      63     3854.3799       0.00000000E+00
      64     3856.8701       0.00000000E+00
      65     3859.3601       0.00000000E+00
      66     3861.8501       0.00000000E+00
      67     3864.3401       0.00000000E+00
      68     3866.8301       0.00000000E+00
      69     3869.3201       0.00000000E+00
      70     3871.8101       0.00000000E+00
      71     3874.3000       0.00000000E+00
      72     3876.7900       0.00000000E+00
      73     3879.2800       0.00000000E+00
      74     3881.7700       0.00000000E+00
      75     3884.2600       0.00000000E+00
      76     3886.7500       0.00000000E+00
      77     3889.2400       0.00000000E+00
      78     3891.7300       0.00000000E+00
      79     3894.2200       0.00000000E+00
      80     3896.7100       0.00000000E+00
      81     3899.2000       0.00000000E+00
      82     3901.6899       0.00000000E+00
      83     3904.1799       0.00000000E+00
      84     3906.6699       0.00000000E+00
      85     3909.1599       0.00000000E+00
      86     3911.6499       0.00000000E+00
      87     3914.1399       0.00000000E+00
      88     3916.6299       0.00000000E+00
      89     3919.1201       0.00000000E+00
      90     3921.6101       0.00000000E+00
      91     3924.1001       0.00000000E+00
      92     3926.5901       0.00000000E+00
      93     3929.0801       0.00000000E+00
      94     3931.5701       0.00000000E+00
      95     3934.0601       0.00000000E+00
      96     3936.5500       0.00000000E+00
      97     3939.0400       0.00000000E+00
      98     3941.5300       0.00000000E+00
      99     3944.0200       0.00000000E+00
     100     3946.5100       0.00000000E+00
     101     3949.0000       0.00000000E+00
     102     3951.4900       0.00000000E+00
     103     3953.9800       0.00000000E+00
     104     3956.4700       0.00000000E+00
     105     3958.9600       0.00000000E+00
     106     3961.4500       0.00000000E+00
     107     3963.9399       0.00000000E+00
     108     3966.4299       0.00000000E+00
     109     3968.9199       0.00000000E+00
     110     3971.4099       0.00000000E+00
     111     3973.8999       0.00000000E+00
     112     3976.3899       0.00000000E+00
     113     3978.8799       0.00000000E+00
     114     3981.3701       0.00000000E+00
     115     3983.8601       0.00000000E+00
     116     3986.3501       0.00000000E+00
     117     3988.8401       0.00000000E+00
     118     3991.3301       0.00000000E+00
     119     3993.8201       0.00000000E+00
     120     3996.3101       0.00000000E+00
     121     3998.8000       0.00000000E+00
     122     4001.2900       0.00000000E+00
     123     4003.7800       0.00000000E+00
     124     4006.2700       0.00000000E+00
     125     4008.7600       0.00000000E+00
     126     4011.2500       0.00000000E+00
     127     4013.7400       0.00000000E+00
     128     4016.2300       0.00000000E+00
     129     4018.7200       0.00000000E+00
     130     4021.2100       0.00000000E+00
     131     4023.7000       0.00000000E+00
     132     4026.1899       0.00000000E+00
     133     4028.6799       0.00000000E+00
     134     4031.1699       0.00000000E+00
     135     4033.6599       0.00000000E+00
     136     4036.1499       0.00000000E+00
     137     4038.6399       0.00000000E+00
     138     4041.1299       0.00000000E+00
     139     4043.6201       0.00000000E+00
     140     4046.1101       0.00000000E+00
     141     4048.6001       0.00000000E+00
     142     4051.0901       0.00000000E+00
     143     4053.5801       0.00000000E+00
     144     4056.0701       0.00000000E+00
     145     4058.5601       0.00000000E+00
     146     4061.0500       0.00000000E+00
     147     4063.5400       0.00000000E+00
     148     4066.0300       0.00000000E+00
     149     4068.5200       0.00000000E+00
     150     4071.0100       0.00000000E+00
     151     4073.5000       0.00000000E+00
     152     4075.9900       0.00000000E+00
     153     4078.4800       0.00000000E+00
     154     4080.9700       0.00000000E+00
     155     4083.4600       0.00000000E+00
     156     4085.9500       0.00000000E+00
     157     4088.4399       0.00000000E+00
     158     4090.9299       0.00000000E+00
     159     4093.4199       0.00000000E+00
     160     4095.9099       0.00000000E+00
     161     4098.3999       0.00000000E+00
     162     4100.8901       0.00000000E+00
     163     4103.3799       0.00000000E+00
     164     4105.8701       0.00000000E+00
     165     4108.3599       0.00000000E+00
     166     4110.8501       0.00000000E+00
     167     4113.3398       0.00000000E+00
     168     4115.8301       0.00000000E+00
     169     4118.3198       0.00000000E+00
     170     4120.8101       0.00000000E+00
     171     4123.2998       0.00000000E+00
     172     4125.7900       0.00000000E+00
     173     4128.2798       0.00000000E+00
     174     4130.7700       0.00000000E+00
     175     4133.2598       0.00000000E+00
     176     4135.7500       0.00000000E+00
     177     4138.2402       0.00000000E+00
     178     4140.7300       0.00000000E+00
     179     4143.2202       0.00000000E+00
     180     4145.7100       0.00000000E+00
     181     4148.2002       0.00000000E+00
     182     4150.6899       0.00000000E+00
     183     4153.1802       0.00000000E+00
     184     4155.6699       0.00000000E+00
     185     4158.1602       0.00000000E+00
     186     4160.6499       0.00000000E+00
     187     4163.1401       0.00000000E+00
     188     4165.6299       0.00000000E+00
     189     4168.1201       0.00000000E+00
     190     4170.6099       0.00000000E+00
     191     4173.1001       0.00000000E+00
     192     4175.5898       0.00000000E+00
     193     4178.0801       0.00000000E+00
     194     4180.5698       0.00000000E+00
     195     4183.0601       0.00000000E+00
     196     4185.5498       0.00000000E+00
     197     4188.0400       0.00000000E+00
     198     4190.5298       0.00000000E+00
     199     4193.0200       0.00000000E+00
     200     4195.5098       0.00000000E+00
     201     4198.0000       0.00000000E+00
     202     4200.4902       0.00000000E+00
     203     4202.9800       0.00000000E+00
     204     4205.4702       0.00000000E+00
     205     4207.9600       0.00000000E+00
     206     4210.4502       0.00000000E+00
     207     4212.9399       0.00000000E+00
     208     4215.4302       0.00000000E+00
     209     4217.9199       0.00000000E+00
     210     4220.4102       0.00000000E+00
     211     4222.8999       0.00000000E+00
     212     4225.3901       0.00000000E+00
     213     4227.8799       0.00000000E+00
     214     4230.3701       0.00000000E+00
     215     4232.8599       0.00000000E+00
     216     4235.3501       0.00000000E+00
     217     4237.8398       0.00000000E+00
     218     4240.3301       0.00000000E+00
     219     4242.8198       0.00000000E+00
     220     4245.3101       0.00000000E+00
     221     4247.7998       0.00000000E+00
     222     4250.2900       0.00000000E+00
     223     4252.7798       0.00000000E+00
     224     4255.2700       0.00000000E+00
     225     4257.7598       0.00000000E+00
     226     4260.2500       0.00000000E+00
     227     4262.7402       0.00000000E+00
     228     4265.2300       0.00000000E+00
     229     4267.7202       0.00000000E+00
     230     4270.2100       0.00000000E+00
     231     4272.7002       0.00000000E+00
     232     4275.1899       0.00000000E+00
     233     4277.6802       0.00000000E+00
     234     4280.1699       0.00000000E+00
     235     4282.6602       0.00000000E+00
     236     4285.1499       0.00000000E+00
     237     4287.6401       0.00000000E+00
     238     4290.1299       0.00000000E+00
     239     4292.6201       0.00000000E+00
     240     4295.1099       0.00000000E+00
     241     4297.6001       0.00000000E+00
     242     4300.0898       0.00000000E+00
     243     4302.5801       0.00000000E+00
     244     4305.0698       0.00000000E+00
     245     4307.5601       0.00000000E+00
     246     4310.0498       0.00000000E+00
     247     4312.5400       0.00000000E+00
     248     4315.0298       0.00000000E+00
     249     4317.5200       0.00000000E+00
     250     4320.0098       0.00000000E+00
     251     4322.5000       0.00000000E+00
     252     4324.9902       0.00000000E+00
     253     4327.4800       0.00000000E+00
     254     4329.9702       0.00000000E+00
     255     4332.4600       0.00000000E+00
     256     4334.9502       0.00000000E+00
     257     4337.4399       0.00000000E+00
     258     4339.9302       0.00000000E+00
     259     4342.4199       0.00000000E+00
     260     4344.9102       0.00000000E+00
     261     4347.3999       0.00000000E+00
     262     4349.8901       0.00000000E+00
     263     4352.3799       0.00000000E+00
     264     4354.8701       0.00000000E+00
     265     4357.3599       0.00000000E+00
     266     4359.8501       0.00000000E+00
     267     4362.3398       0.00000000E+00
     268     4364.8301       0.00000000E+00
     269     4367.3198       0.00000000E+00
     270     4369.8101       0.00000000E+00
     271     4372.2998       0.00000000E+00
     272     4374.7900       0.00000000E+00
     273     4377.2798       0.00000000E+00
     274     4379.7700       0.00000000E+00
     275     4382.2598       0.00000000E+00
     276     4384.7500       0.00000000E+00
     277     4387.2402       0.00000000E+00
     278     4389.7300       0.00000000E+00
     279     4392.2202       0.00000000E+00
     280     4394.7100       0.00000000E+00
     281     4397.2002       0.00000000E+00
     282     4399.6899       0.00000000E+00
     283     4402.1802       0.00000000E+00
     284     4404.6699       0.00000000E+00
     285     4407.1602       0.00000000E+00
     286     4409.6499       0.00000000E+00
     287     4412.1401       0.00000000E+00
     288     4414.6299       0.00000000E+00
     289     4417.1201       0.00000000E+00
     290     4419.6099       0.00000000E+00
     291     4422.1001       0.00000000E+00
     292     4424.5898       0.00000000E+00
     293     4427.0801       0.00000000E+00
     294     4429.5698       0.00000000E+00
     295     4432.0601       0.00000000E+00
     296     4434.5498       0.00000000E+00
     297     4437.0400       0.00000000E+00
     298     4439.5298       0.00000000E+00
     299     4442.0200       0.00000000E+00
     300     4444.5098       0.00000000E+00
     301     4447.0000       0.00000000E+00
     302     4449.4902       0.00000000E+00
     303     4451.9800       0.00000000E+00
     304     4454.4702       0.00000000E+00
     305     4456.9600       0.00000000E+00
     306     4459.4502       0.00000000E+00
     307     4461.9399       0.00000000E+00
     308     4464.4302       0.00000000E+00
     309     4466.9199       0.00000000E+00
     310     4469.4102       0.00000000E+00
     311     4471.8999       0.00000000E+00
     312     4474.3901       0.00000000E+00
     313     4476.8799       0.00000000E+00
     314     4479.3701       0.00000000E+00
     315     4481.8599       0.00000000E+00
     316     4484.3501       0.00000000E+00
     317     4486.8398       0.00000000E+00
     318     4489.3301       0.00000000E+00
     319     4491.8198       0.00000000E+00
     320     4494.3101       0.00000000E+00
     321     4496.7998       0.00000000E+00
     322     4499.2900       0.00000000E+00
     323     4501.7798       0.00000000E+00
     324     4504.2700       0.00000000E+00
     325     4506.7598       0.00000000E+00
     326     4509.2500       0.00000000E+00
     327     4511.7402       0.00000000E+00
     328     4514.2300       0.00000000E+00
     329     4516.7202       0.00000000E+00
     330     4519.2100       0.00000000E+00
     331     4521.7002       0.00000000E+00
     332     4524.1899       0.00000000E+00
     333     4526.6802       0.00000000E+00
     334     4529.1699       0.00000000E+00
     335     4531.6602       0.00000000E+00
     336     4534.1499       0.00000000E+00
     337     4536.6401       0.00000000E+00
     338     4539.1299       0.00000000E+00
     339     4541.6201       0.00000000E+00
     340     4544.1099       0.00000000E+00
     341     4546.6001       3.84034589E-03
     342     4549.0898       3.37651744E-03
     343     4551.5801       3.54642142E-03
     344     4554.0698       3.91916279E-03
     345     4556.5601       3.58165847E-03
     346     4559.0498       3.63313965E-03
     347     4561.5400       3.90648749E-03
     348     4564.0298       3.88852088E-03
     349     4566.5200       3.96490935E-03
     350     4569.0098       3.51537485E-03
     351     4571.5000       3.30341002E-03
     352     4573.9902       3.77326785E-03
     353     4576.4800       3.96896107E-03
     354     4578.9702       3.62173747E-03
     355     4581.4600       3.18343029E-03
     356     4583.9502       3.62298405E-03
     357     4586.4399       3.37895518E-03
     358     4588.9302       4.13396582E-03
     359     4591.4199       3.75638762E-03
     360     4593.9102       3.56830796E-03
     361     4596.3999       3.51597276E-03
     362     4598.8901       3.75704071E-03
     363     4601.3799       3.63231543E-03
     364     4603.8701       3.93638527E-03
     365     4606.3599       3.55002051E-03
     366     4608.8501       3.55132949E-03
     367     4611.3398       3.75859998E-03
     368     4613.8301       3.63319833E-03
     369     4616.3198       3.81322345E-03
     370     4618.8101       3.83825623E-03
     371     4621.2998       3.81853199E-03
     372     4623.7900       3.87731241E-03
     373     4626.2798       3.52583150E-03
     374     4628.7700       3.68960621E-03
     375     4631.2598       3.75335244E-03
     376     4633.7500       3.63936462E-03
     377     4636.2402       3.39636859E-03
     378     4638.7300       3.68441688E-03
     379     4641.2202       3.80958756E-03
     380     4643.7100       3.79219977E-03
     381     4646.2002       3.84277105E-03
     382     4648.6899       3.67158512E-03
     383     4651.1802       3.81627516E-03
     384     4653.6699       3.86292324E-03
     385     4656.1602       3.62875964E-03
     386     4658.6499       3.37318727E-03
     387     4661.1401       3.53606371E-03
     388     4663.6299       3.86952795E-03
     389     4666.1201       3.98814026E-03
     390     4668.6099       3.85752553E-03
     391     4671.1001       3.81999440E-03
     392     4673.5898       3.99494218E-03
     393     4676.0801       3.59922461E-03
     394     4678.5698       3.78922513E-03
     395     4681.0601       3.83155001E-03
     396     4683.5498       3.89396236E-03
     397     4686.0400       3.89286829E-03
     398     4688.5298       3.97449126E-03
     399     4691.0200       4.03605681E-03
     400     4693.5098       4.17671166E-03
     401     4696.0000       4.24299575E-03
     402     4698.4902       4.08111233E-03
     403     4700.9800       4.30482440E-03
     404     4703.4702       4.93548810E-03
     405     4705.9600       4.59300354E-03
     406     4708.4502       4.34848899E-03
     407     4710.9399       5.18141966E-03
     408     4713.4302       4.75436449E-03
     409     4715.9199       5.27400849E-03
     410     4718.4102       5.07947244E-03
     411     4720.8999       5.33924578E-03
     412     4723.3901       5.16246445E-03
     413     4725.8799       5.66851348E-03
     414     4728.3701       5.75733045E-03
     415     4730.8599       5.87734859E-03
     416     4733.3501       6.23097271E-03
     417     4735.8398       6.73666038E-03
     418     4738.3301       6.75124675E-03
     419     4740.8198       7.16928951E-03
     420     4743.3101       7.13680685E-03
     421     4745.7998       7.83914514E-03
     422     4748.2900       8.46225210E-03
     423     4750.7798       9.02263448E-03
     424     4753.2700       9.07764025E-03
     425     4755.7598       1.02617163E-02
     426     4758.2500       1.03330743E-02
     427     4760.7402       1.11774784E-02
     428     4763.2300       1.18728168E-02
     429     4765.7202       1.24478340E-02
     430     4768.2100       1.35676637E-02
     431     4770.7002       1.46680102E-02
     432     4773.1899       1.61562860E-02
     433     4775.6802       1.70845911E-02
     434     4778.1699       1.84074417E-02
     435     4780.6602       1.96453761E-02
     436     4783.1499       2.13340595E-02
     437     4785.6401       2.30283663E-02
     438     4788.1299       2.54083797E-02
     439     4790.6201       2.69661918E-02
     440     4793.1099       2.96561643E-02
     441     4795.6001       3.25632021E-02
     442     4798.0898       3.39797996E-02
     443     4800.5801       3.68809551E-02
     444     4803.0698       3.98646742E-02
     445     4805.5601       4.31700572E-02
     446     4808.0498       4.69692834E-02
     447     4810.5400       4.90008295E-02
     448     4813.0298       5.30911237E-02
     449     4815.5200       5.81954233E-02
     450     4818.0098       6.14809170E-02
     451     4820.5000       6.60344809E-02
     452     4822.9902       7.16887712E-02
     453     4825.4800       7.67406821E-02
     454     4827.9702       8.09643865E-02
     455     4830.4600       8.73076022E-02
     456     4832.9502       9.23457295E-02
     457     4835.4399       9.79169905E-02
     458     4837.9302       1.04007602E-01
     459     4840.4199       1.11323290E-01
     460     4842.9102       1.17925078E-01
     461     4845.3999       1.24434255E-01
     462     4847.8901       1.30641013E-01
     463     4850.3799       1.38315126E-01
     464     4852.8701       1.45727396E-01
     465     4855.3599       1.54726952E-01
     466     4857.8501       1.60894543E-01
     467     4860.3398       1.74053550E-01
     468     4862.8301       1.77913055E-01
     469     4865.3198       1.86500475E-01
     470     4867.8101       1.93644464E-01
     471     4870.2998       2.02668130E-01
     472     4872.7900       2.11563587E-01
     473     4875.2798       2.20474213E-01
     474     4877.7700       2.27567986E-01
     475     4880.2598       2.38167241E-01
     476     4882.7500       2.46216923E-01
     477     4885.2402       2.56399333E-01
     478     4887.7300       2.65431225E-01
     479     4890.2202       2.73116440E-01
     480     4892.7100       2.83547223E-01
     481     4895.2002       2.90280879E-01
     482     4897.6899       3.02655458E-01
     483     4900.1802       3.13840240E-01
     484     4902.6699       3.21586847E-01
     485     4905.1602       3.29638243E-01
     486     4907.6499       3.38215619E-01
     487     4910.1401       3.47225487E-01
     488     4912.6299       3.55414599E-01
     489     4915.1201       3.62379968E-01
     490     4917.6099       3.74884725E-01
     491     4920.1001       3.81151199E-01
     492     4922.5898       3.91690731E-01
     493     4925.0801       3.99550378E-01
     494     4927.5698       4.06426996E-01
     495     4930.0601       4.19603765E-01
     496     4932.5498       4.23138499E-01
     497     4935.0400       4.34626162E-01
     498     4937.5298       4.40192044E-01
     499     4940.0200       4.49564159E-01
     500     4942.5098       4.58272159E-01
     501     4945.0000       4.63035703E-01
     502     4947.4902       4.74955380E-01
     503     4949.9800       4.81190920E-01
     504     4952.4702       4.88153666E-01
     505     4954.9600       4.93202716E-01
     506     4957.4502       5.00675082E-01
     507     4959.9399       5.05774558E-01
     508     4962.4302       5.15790403E-01
     509     4964.9199       5.22544265E-01
     510     4967.4102       5.29367566E-01
     511     4969.8999       5.35766363E-01
     512     4972.3901       5.41025996E-01
     513     4974.8799       5.47385097E-01
     514     4977.3701       5.53276181E-01
     515     4979.8599       5.59214234E-01
     516     4982.3501       5.65047503E-01
     517     4984.8398       5.70351481E-01
     518     4987.3301       5.77417254E-01
     519     4989.8198       5.82907915E-01
     520     4992.3101       5.86804807E-01
     521     4994.7998       5.92744708E-01
     522     4997.2900       5.98895550E-01
     523     4999.7798       6.02444530E-01
     524     5002.2700       6.04842186E-01
     525     5004.7598       6.12855673E-01
     526     5007.2500       6.18009806E-01
     527     5009.7402       6.19995296E-01
     528     5012.2300       6.25624061E-01
     529     5014.7202       6.33215606E-01
     530     5017.2100       6.35220051E-01
     531     5019.7002       6.41575098E-01
     532     5022.1899       6.43484831E-01
     533     5024.6802       6.48479223E-01
     534     5027.1699       6.53337777E-01
     535     5029.6602       6.54421329E-01
     536     5032.1499       6.56953812E-01
     537     5034.6401       6.62068009E-01
     538     5037.1299       6.65100574E-01
     539     5039.6201       6.71825409E-01
     540     5042.1099       6.76004767E-01
     541     5044.6001       6.77294016E-01
     542     5047.0898       6.77845597E-01
     543     5049.5801       6.82081640E-01
     544     5052.0698       6.85025454E-01
     545     5054.5601       6.88660860E-01
     546     5057.0498       6.91720963E-01
     547     5059.5400       6.92626834E-01
     548     5062.0298       6.97150230E-01
     549     5064.5200       6.99992597E-01
     550     5067.0098       7.03279495E-01
     551     5069.5000       7.04369366E-01
     552     5071.9902       7.08278596E-01
     553     5074.4800       7.10314274E-01
     554     5076.9702       7.12907195E-01
     555     5079.4600       7.12445796E-01
     556     5081.9502       7.17496157E-01
     557     5084.4399       7.19378710E-01
     558     5086.9302       7.22655177E-01
     559     5089.4199       7.24602461E-01
     560     5091.9102       7.26003170E-01
     561     5094.3999       7.26654172E-01
     562     5096.8901       7.28528380E-01
     563     5099.3799       7.30414867E-01
     564     5101.8701       7.34619558E-01
     565     5104.3599       7.39128172E-01
     566     5106.8501       7.39573121E-01
     567     5109.3398       7.39110589E-01
     568     5111.8301       7.42447376E-01
     569     5114.3198       7.40948796E-01
     570     5116.8101       7.44026542E-01
     571     5119.2998       7.44049549E-01
     572     5121.7900       7.44160652E-01
     573     5124.2798       7.51826525E-01
     574     5126.7700       7.47763872E-01
     575     5129.2598       7.51385748E-01
     576     5131.7500       7.53264248E-01
     577     5134.2402       7.53744364E-01
     578     5136.7300       7.53624439E-01
     579     5139.2202       7.56944239E-01
     580     5141.7100       7.56859303E-01
     581     5144.2002       7.57882297E-01
     582     5146.6899       7.56262541E-01
     583     5149.1802       7.59514809E-01
     584     5151.6699       7.63879776E-01
     585     5154.1602       7.62846351E-01
     586     5156.6499       7.63078809E-01
     587     5159.1401       7.63779938E-01
     588     5161.6299       7.65457809E-01
     589     5164.1201       7.64801562E-01
     590     5166.6099       7.69693494E-01
     591     5169.1001       7.70029187E-01
     592     5171.5898       7.68751740E-01
     593     5174.0801       7.71339834E-01
     594     5176.5698       7.73567677E-01
     595     5179.0601       7.73468137E-01
     596     5181.5498       7.72904396E-01
     597     5184.0400       7.74304807E-01
     598     5186.5298       7.74275422E-01
     599     5189.0200       7.77120709E-01
     600     5191.5098       7.76882231E-01
     601     5194.0000       7.76181757E-01
     602     5196.4902       7.76892424E-01
     603     5198.9800       7.74905503E-01
     604     5201.4702       7.77130246E-01
     605     5203.9600       7.78694987E-01
     606     5206.4502       7.81926394E-01
     607     5208.9399       7.81368136E-01
     608     5211.4302       7.75869131E-01
     609     5213.9199       7.81394839E-01
     610     5216.4102       7.80598879E-01
     611     5218.8999       7.82781422E-01
     612     5221.3901       7.81406283E-01
     613     5223.8799       7.80023098E-01
     614     5226.3701       7.80984640E-01
     615     5228.8599       7.82928824E-01
     616     5231.3501       7.84964263E-01
     617     5233.8398       7.86612034E-01
     618     5236.3301       7.84459591E-01
     619     5238.8198       7.83630550E-01
     620     5241.3101       7.84882784E-01
     621     5243.7998       7.86309838E-01
     622     5246.2900       7.84688473E-01
     623     5248.7798       7.86474645E-01
     624     5251.2700       7.84253418E-01
     625     5253.7598       7.84889460E-01
     626     5256.2500       7.84721076E-01
     627     5258.7402       7.84447193E-01
     628     5261.2300       7.83884168E-01
     629     5263.7202       7.84777403E-01
     630     5266.2100       7.84488916E-01
     631     5268.7002       7.81937122E-01
     632     5271.1899       7.84860730E-01
     633     5273.6802       7.84441829E-01
     634     5276.1699       7.84917116E-01
     635     5278.6602       7.85336614E-01
     636     5281.1499       7.87224829E-01
     637     5283.6401       7.86207318E-01
     638     5286.1299       7.85804749E-01
     639     5288.6201       7.83614516E-01
     640     5291.1099       7.84027338E-01
     641     5293.6001       7.85479069E-01
     642     5296.0898       7.80758381E-01
     643     5298.5801       7.85749495E-01
     644     5301.0698       7.85769105E-01
     645     5303.5601       7.84194231E-01
     646     5306.0498       7.86381125E-01
     647     5308.5400       7.81225443E-01
     648     5311.0298       7.84749866E-01
     649     5313.5200       7.85321593E-01
     650     5316.0098       7.82946110E-01
     651     5318.5000       7.80812502E-01
     652     5320.9902       7.81307340E-01
     653     5323.4800       7.82169461E-01
     654     5325.9702       7.79742718E-01
     655     5328.4600       7.81101942E-01
     656     5330.9502       7.80210674E-01
     657     5333.4399       7.78379440E-01
     658     5335.9302       7.81308889E-01
     659     5338.4199       7.78803229E-01
     660     5340.9102       7.78613448E-01
     661     5343.3999       7.78385401E-01
     662     5345.8901       7.77972341E-01
     663     5348.3799       7.77276218E-01
     664     5350.8701       7.78530121E-01
     665     5353.3599       7.77185380E-01
     666     5355.8501       7.75914669E-01
     667     5358.3398       7.73413420E-01
     668     5360.8301       7.71742940E-01
     669     5363.3198       7.76379466E-01
     670     5365.8101       7.71387339E-01
     671     5368.2998       7.74451256E-01
     672     5370.7900       7.72209167E-01
     673     5373.2798       7.70203710E-01
     674     5375.7700       7.70319462E-01
     675     5378.2598       7.70941556E-01
     676     5380.7500       7.71598279E-01
     677     5383.2402       7.68580317E-01
     678     5385.7300       7.69037366E-01
     679     5388.2202       7.68743277E-01
     680     5390.7100       7.66883433E-01
     681     5393.2002       7.68884182E-01
     682     5395.6899       7.65223086E-01
     683     5398.1802       7.65510798E-01
     684     5400.6699       7.62006640E-01
     685     5403.1602       7.63960242E-01
     686     5405.6499       7.63461828E-01
     687     5408.1401       7.60727763E-01
     688     5410.6299       7.61923730E-01
     689     5413.1201       7.59667397E-01
     690     5415.6099       7.58815527E-01
     691     5418.1001       7.56673515E-01
     692     5420.5898       7.55544901E-01
     693     5423.0801       7.54437864E-01
     694     5425.5698       7.56385326E-01
     695     5428.0601       7.52211452E-01
     696     5430.5498       7.53780842E-01
     697     5433.0400       7.52654135E-01
     698     5435.5298       7.51147032E-01
     699     5438.0200       7.49855936E-01
     700     5440.5098       7.49002099E-01
     701     5443.0000       7.49454916E-01
     702     5445.4902       7.46346354E-01
     703     5447.9800       7.44491220E-01
     704     5450.4702       7.46577263E-01
     705     5452.9600       7.43087292E-01
     706     5455.4502       7.42319703E-01
     707     5457.9399       7.41950035E-01
     708     5460.4302       7.38995790E-01
     709     5462.9199       7.37157822E-01
     710     5465.4102       7.39506125E-01
     711     5467.8999       7.35114455E-01
     712     5470.3901       7.35106826E-01
     713     5472.8799       7.33893991E-01
     714     5475.3701       7.34252810E-01
     715     5477.8599       7.31897414E-01
     716     5480.3501       7.31096745E-01
     717     5482.8398       7.28805423E-01
     718     5485.3301       7.27472782E-01
     719     5487.8198       7.27911055E-01
     720     5490.3101       7.27478147E-01
     721     5492.7998       7.26707160E-01
     722     5495.2900       7.24201322E-01
     723     5497.7798       7.21110940E-01
     724     5500.2700       7.19139814E-01
     725     5502.7598       7.19689012E-01
     726     5505.2500       7.15715647E-01
     727     5507.7402       7.15689600E-01
     728     5510.2300       7.14860559E-01
     729     5512.7202       7.13369906E-01
     730     5515.2100       7.11078286E-01
     731     5517.7002       7.09458590E-01
     732     5520.1899       7.09415555E-01
     733     5522.6802       7.07410693E-01
     734     5525.1699       7.07264066E-01
     735     5527.6602       7.05346704E-01
     736     5530.1499       7.04213262E-01
     737     5532.6401       7.01132655E-01
     738     5535.1299       6.99515760E-01
     739     5537.6201       6.98735237E-01
     740     5540.1099       6.96211219E-01
     741     5542.6001       6.97536111E-01
     742     5545.0898       6.93988204E-01
     743     5547.5801       6.90875649E-01
     744     5550.0698       6.89508379E-01
     745     5552.5601       6.87779665E-01
     746     5555.0498       6.84442282E-01
     747     5557.5400       6.87016547E-01
     748     5560.0298       6.83566093E-01
     749     5562.5200       6.81253850E-01
     750     5565.0098       6.78975940E-01
     751     5567.5000       6.77742004E-01
     752     5569.9902       6.77533031E-01
     753     5572.4800       6.75387383E-01
     754     5574.9702       6.71443701E-01
     755     5577.4600       6.70345068E-01
     756     5579.9502       6.70400262E-01
     757     5582.4399       6.70976520E-01
     758     5584.9302       6.63832545E-01
     759     5587.4199       6.63778186E-01
     760     5589.9102       6.61029160E-01
     761     5592.3999       6.58600569E-01
     762     5594.8901       6.59841061E-01
     763     5597.3799       6.56984329E-01
     764     5599.8701       6.56785727E-01
     765     5602.3599       6.52764738E-01
     766     5604.8501       6.52070999E-01
     767     5607.3398       6.48675084E-01
     768     5609.8301       6.45088315E-01
     769     5612.3198       6.43401980E-01
     770     5614.8101       6.40636683E-01
     771     5617.2998       6.39728904E-01
     772     5619.7900       6.38268471E-01
     773     5622.2798       6.37910247E-01
     774     5624.7700       6.34834766E-01
     775     5627.2598       6.33340955E-01
     776     5629.7500       6.30458176E-01
     777     5632.2402       6.28238261E-01
     778     5634.7300       6.27419949E-01
     779     5637.2202       6.23482823E-01
     780     5639.7100       6.23560309E-01
     781     5642.2002       6.20869815E-01
     782     5644.6899       6.17358744E-01
     783     5647.1802       6.16272151E-01
     784     5649.6699       6.12569332E-01
     785     5652.1602       6.11951351E-01
     786     5654.6499       6.08795524E-01
     787     5657.1401       6.08657718E-01
     788     5659.6299       6.03300452E-01
     789     5662.1201       6.00626945E-01
     790     5664.6099       5.99474311E-01
     791     5667.1001       5.98415494E-01
     792     5669.5898       5.95417440E-01
     793     5672.0801       5.93369484E-01
     794     5674.5698       5.89601457E-01
     795     5677.0601       5.88766277E-01
     796     5679.5498       5.88063061E-01
     797     5682.0400       5.84698498E-01
     798     5684.5298       5.81315875E-01
     799     5687.0200       5.79480410E-01
     800     5689.5098       5.77986360E-01
     801     5692.0000       5.75771213E-01
     802     5694.4902       5.73231459E-01
     803     5696.9800       5.68389654E-01
     804     5699.4702       5.66982150E-01
     805     5701.9600       5.65385580E-01
     806     5704.4502       5.63554287E-01
     807     5706.9399       5.60895920E-01
     808     5709.4302       5.59111178E-01
     809     5711.9199       5.56413651E-01
     810     5714.4102       5.53132236E-01
     811     5716.8999       5.51454186E-01
     812     5719.3901       5.49806356E-01
     813     5721.8799       5.44008076E-01
     814     5724.3701       5.44574976E-01
     815     5726.8599       5.42438984E-01
     816     5729.3501       5.39200366E-01
     817     5731.8398       5.36204517E-01
     818     5734.3301       5.32778025E-01
     819     5736.8198       5.31398356E-01
     820     5739.3101       5.29522181E-01
     821     5741.7998       5.26472628E-01
     822     5744.2900       5.22623181E-01
     823     5746.7798       5.20836473E-01
     824     5749.2700       5.15949428E-01
     825     5751.7598       5.15707791E-01
     826     5754.2500       5.15842378E-01
     827     5756.7402       5.10471702E-01
     828     5759.2300       5.09387851E-01
     829     5761.7202       5.07268667E-01
     830     5764.2100       5.03412902E-01
     831     5766.7002       5.00786841E-01
     832     5769.1899       4.99508917E-01
     833     5771.6802       4.97105628E-01
     834     5774.1699       4.93429780E-01
     835     5776.6602       4.90955770E-01
     836     5779.1499       4.87862080E-01
     837     5781.6401       4.86618042E-01
     838     5784.1299       4.82921779E-01
     839     5786.6201       4.78671104E-01
     840     5789.1099       4.77949381E-01
     841     5791.6001       4.74941552E-01
     842     5794.0898       4.72899556E-01
     843     5796.5801       4.71307367E-01
     844     5799.0698       4.67473507E-01
     845     5801.5601       4.65106130E-01
     846     5804.0498       4.62305725E-01
     847     5806.5400       4.60373431E-01
     848     5809.0298       4.57703382E-01
     849     5811.5200       4.53898668E-01
     850     5814.0098       4.52516258E-01
     851     5816.5000       4.50175256E-01
     852     5818.9902       4.45790350E-01
     853     5821.4800       4.45501566E-01
     854     5823.9702       4.40866649E-01
     855     5826.4600       4.38675940E-01
     856     5828.9502       4.35718417E-01
     857     5831.4399       4.33875978E-01
     858     5833.9302       4.31909144E-01
     859     5836.4199       4.27945077E-01
     860     5838.9102       4.24920082E-01
     861     5841.3999       4.23834801E-01
     862     5843.8901       4.19773072E-01
     863     5846.3799       4.17894959E-01
     864     5848.8701       4.15935755E-01
     865     5851.3599       4.12946790E-01
     866     5853.8501       4.10718977E-01
     867     5856.3398       4.08034563E-01
     868     5858.8301       4.04017657E-01
     869     5861.3198       4.02346611E-01
     870     5863.8101       4.00815099E-01
     871     5866.2998       3.95851463E-01
     872     5868.7900       3.94934118E-01
     873     5871.2798       3.92298162E-01
     874     5873.7700       3.89564514E-01
     875     5876.2598       3.87168109E-01
     876     5878.7500       3.84087473E-01
     877     5881.2402       3.80639970E-01
     878     5883.7300       3.79615366E-01
     879     5886.2202       3.76797467E-01
     880     5888.7100       3.73367488E-01
     881     5891.2002       3.70587766E-01
     882     5893.6899       3.69764417E-01
     883     5896.1802       3.65682900E-01
     884     5898.6699       3.63525063E-01
     885     5901.1602       3.61454964E-01
     886     5903.6499       3.58649075E-01
     887     5906.1401       3.55434656E-01
     888     5908.6299       3.53769422E-01
     889     5911.1201       3.50479364E-01
     890     5913.6099       3.47952783E-01
     891     5916.1001       3.46174836E-01
     892     5918.5898       3.43398690E-01
     893     5921.0801       3.41728985E-01
     894     5923.5698       3.38496715E-01
     895     5926.0601       3.35033000E-01
     896     5928.5498       3.32841694E-01
     897     5931.0400       3.30076158E-01
     898     5933.5298       3.28289568E-01
     899     5936.0200       3.25913072E-01
     900     5938.5098       3.22660983E-01
     901     5941.0000       3.20039213E-01
     902     5943.4902       3.17609876E-01
     903     5945.9800       3.16019386E-01
     904     5948.4702       3.13892245E-01
     905     5950.9600       3.11611861E-01
     906     5953.4502       3.08545768E-01
     907     5955.9399       3.05876851E-01
     908     5958.4302       3.03941935E-01
     909     5960.9199       3.01871896E-01
     910     5963.4102       2.99100876E-01
     911     5965.8999       2.97166467E-01
     912     5968.3901       2.93985575E-01
     913     5970.8799       2.92673439E-01
     914     5973.3701       2.88777113E-01
     915     5975.8599       2.86640853E-01
     916     5978.3501       2.84392089E-01
     917     5980.8398       2.81506509E-01
     918     5983.3301       2.78213501E-01
     919     5985.8198       2.77017772E-01
     920     5988.3101       2.75440753E-01
     921     5990.7998       2.72971153E-01
     922     5993.2900       2.70467311E-01
     923     5995.7798       2.68219054E-01
     924     5998.2700       2.65447497E-01
     925     6000.7598       2.62379706E-01
     926     6003.2500       2.60849327E-01
     927     6005.7402       2.58181691E-01
     928     6008.2300       2.55612999E-01
     929     6010.7202       2.54349619E-01
     930     6013.2100       2.51574039E-01
     931     6015.7002       2.48948023E-01
     932     6018.1899       2.47243375E-01
     933     6020.6802       2.46150598E-01
     934     6023.1699       2.42084950E-01
     935     6025.6602       2.40812317E-01
     936     6028.1499       2.38573760E-01
     937     6030.6401       2.36098960E-01
     938     6033.1299       2.34197646E-01
     939     6035.6201       2.31815055E-01
     940     6038.1099       2.30717868E-01
     941     6040.6001       2.28073254E-01
     942     6043.0898       2.26000100E-01
     943     6045.5801       2.22841576E-01
     944     6048.0698       2.21121073E-01
     945     6050.5601       2.19635174E-01
     946     6053.0498       2.17592299E-01
     947     6055.5400       2.15048730E-01
     948     6058.0298       2.13189781E-01
     949     6060.5200       2.11106092E-01
     950     6063.0098       2.08533436E-01
     951     6065.5000       2.06462383E-01
     952     6067.9902       2.04837590E-01
     953     6070.4800       2.02207804E-01
     954     6072.9702       2.01117665E-01
     955     6075.4600       1.98350191E-01
     956     6077.9502       1.96694329E-01
     957     6080.4399       1.94685876E-01
     958     6082.9302       1.92236036E-01
     959     6085.4199       1.91269487E-01
     960     6087.9102       1.87942117E-01
     961     6090.3999       1.87187731E-01
     962     6092.8901       1.84814602E-01
     963     6095.3799       1.83792591E-01
     964     6097.8701       1.81717217E-01
     965     6100.3599       1.79216295E-01
     966     6102.8501       1.78016722E-01
     967     6105.3398       1.75629556E-01
     968     6107.8301       1.73804328E-01
     969     6110.3198       1.72402516E-01
     970     6112.8101       1.70497045E-01
     971     6115.2998       1.68182820E-01
     972     6117.7900       1.67372137E-01
     973     6120.2798       1.65530801E-01
     974     6122.7700       1.62991896E-01
     975     6125.2598       1.61069959E-01
     976     6127.7500       1.60477415E-01
     977     6130.2402       1.57811731E-01
     978     6132.7300       1.55859515E-01
     979     6135.2202       1.54685289E-01
     980     6137.7100       1.52848452E-01
     981     6140.2002       1.51110530E-01
     982     6142.6899       1.49734288E-01
     983     6145.1802       1.47925019E-01
     984     6147.6699       1.46222860E-01
     985     6150.1602       1.44664794E-01
     986     6152.6499       1.42747208E-01
     987     6155.1401       1.41822010E-01
     988     6157.6299       1.39843911E-01
     989     6160.1201       1.37930781E-01
     990     6162.6099       1.36920273E-01
     991     6165.1001       1.35044008E-01
     992     6167.5898       1.33361876E-01
     993     6170.0801       1.31625295E-01
     994     6172.5698       1.30444065E-01
     995     6175.0601       1.28791586E-01
     996     6177.5498       1.27740800E-01
     997     6180.0400       1.25887260E-01
     998     6182.5298       1.24617547E-01
     999     6185.0200       1.22674733E-01
    1000     6187.5098       1.21488884E-01
    1001     6190.0000       1.20155126E-01
    1002     6192.4902       1.18700773E-01
    1003     6194.9800       1.17638737E-01
    1004     6197.4702       1.15604877E-01
    1005     6199.9600       1.14336170E-01
    1006     6202.4502       1.13116294E-01
    1007     6204.9399       1.11982927E-01
    1008     6207.4302       1.10604435E-01
    1009     6209.9199       1.08959831E-01
    1010     6212.4102       1.07535213E-01
    1011     6214.8999       1.06439896E-01
    1012     6217.3901       1.04571268E-01
    1013     6219.8799       1.03239164E-01
    1014     6222.3701       1.02723375E-01
    1015     6224.8599       1.00952841E-01
    1016     6227.3501       9.99606103E-02
    1017     6229.8398       9.84323025E-02
    1018     6232.3301       9.75255817E-02
    1019     6234.8198       9.62462202E-02
    1020     6237.3101       9.48418528E-02
    1021     6239.7998       9.37661678E-02
    1022     6242.2900       9.26585421E-02
    1023     6244.7798       9.14713293E-02
    1024     6247.2700       9.03449506E-02
    1025     6249.7598       8.91755894E-02
    1026     6252.2500       8.78452510E-02
    1027     6254.7402       8.69027227E-02
    1028     6257.2300       8.57506841E-02
    1029     6259.7202       8.46363902E-02
    1030     6262.2100       8.31186622E-02
    1031     6264.7002       8.19323882E-02
    1032     6267.1899       8.14868510E-02
    1033     6269.6802       8.00266564E-02
    1034     6272.1699       7.90248811E-02
    1035     6274.6602       7.81523064E-02
    1036     6277.1499       7.70024955E-02
    1037     6279.6401       7.62438178E-02
    1038     6282.1299       7.52515197E-02
    1039     6284.6201       7.44275972E-02
    1040     6287.1099       7.33360350E-02
    1041     6289.6001       7.22401738E-02
    1042     6292.0898       7.09062815E-02
    1043     6294.5801       6.99686408E-02
    1044     6297.0698       6.93081468E-02
    1045     6299.5601       6.84419423E-02
    1046     6302.0498       6.72692880E-02
    1047     6304.5400       6.64497316E-02
    1048     6307.0298       6.53520375E-02
    1049     6309.5200       6.47296160E-02
    1050     6312.0103       6.36935383E-02
    1051     6314.5000       6.27360120E-02
    1052     6316.9902       6.19271994E-02
    1053     6319.4800       6.15266077E-02
    1054     6321.9702       6.02978058E-02
    1055     6324.4600       5.95952272E-02
    1056     6326.9502       5.86821400E-02
    1057     6329.4399       5.76397404E-02
    1058     6331.9302       5.73231243E-02
    1059     6334.4199       5.63467741E-02
    1060     6336.9102       5.52985147E-02
    1061     6339.3999       5.49031831E-02
    1062     6341.8901       5.39648719E-02
    1063     6344.3799       5.28326929E-02
    1064     6346.8701       5.24127558E-02
    1065     6349.3599       5.15457578E-02
    1066     6351.8501       5.10360003E-02
    1067     6354.3398       5.00146598E-02
    1068     6356.8301       4.94982824E-02
    1069     6359.3198       4.84063588E-02
    1070     6361.8101       4.79520895E-02
    1071     6364.2998       4.68508825E-02
    1072     6366.7900       4.65586558E-02
    1073     6369.2798       4.59438302E-02
    1074     6371.7700       4.53392565E-02
    1075     6374.2603       4.43370268E-02
    1076     6376.7500       4.38631848E-02
    1077     6379.2402       4.30740491E-02
    1078     6381.7300       4.22519296E-02
    1079     6384.2202       4.18922827E-02
    1080     6386.7100       4.10688408E-02
    1081     6389.2002       4.03317288E-02
    1082     6391.6899       4.01580036E-02
    1083     6394.1802       3.91564369E-02
    1084     6396.6699       3.87933329E-02
    1085     6399.1602       3.80502269E-02
    1086     6401.6499       3.78329232E-02
    1087     6404.1401       3.72265913E-02
    1088     6406.6299       3.62455957E-02
    1089     6409.1201       3.60365137E-02
    1090     6411.6099       3.53600271E-02
    1091     6414.1001       3.48797292E-02
    1092     6416.5898       3.43377665E-02
    1093     6419.0801       3.40147465E-02
    1094     6421.5698       3.33230123E-02
    1095     6424.0601       3.28913964E-02
    1096     6426.5498       3.24304923E-02
    1097     6429.0400       3.17314975E-02
    1098     6431.5298       3.12719271E-02
    1099     6434.0200       3.08364145E-02
    1100     6436.5103       3.03033367E-02
    1101     6439.0000       2.98863985E-02
    1102     6441.4902       2.95704734E-02
    1103     6443.9800       2.88901739E-02
    1104     6446.4702       2.82944664E-02
    1105     6448.9600       2.78194249E-02
    1106     6451.4502       2.74586566E-02
    1107     6453.9399       2.70796753E-02
    1108     6456.4302       2.63511837E-02
    1109     6458.9199       2.60420330E-02
    1110     6461.4102       2.57766470E-02
    1111     6463.8999       2.52643563E-02
    1112     6466.3901       2.50167027E-02
    1113     6468.8799       2.46287510E-02
    1114     6471.3701       2.41169706E-02
    1115     6473.8599       2.37196013E-02
    1116     6476.3501       2.33346932E-02
    1117     6478.8398       2.31316406E-02
    1118     6481.3301       2.24794745E-02
    1119     6483.8198       2.22402830E-02
    1120     6486.3101       2.19130963E-02
    1121     6488.7998       2.16142666E-02
    1122     6491.2900       2.11074110E-02
    1123     6493.7798       2.09549032E-02
    1124     6496.2700       2.04940774E-02
    1125     6498.7603       2.00710427E-02
    1126     6501.2500       1.97404008E-02
    1127     6503.7402       1.94052048E-02
    1128     6506.2300       1.89766996E-02
    1129     6508.7202       1.88236367E-02
    1130     6511.2100       1.84266083E-02
    1131     6513.7002       1.83407255E-02
    1132     6516.1899       1.78102031E-02
    1133     6518.6802       1.73956249E-02
    1134     6521.1699       1.72871184E-02
    1135     6523.6602       1.70076434E-02
    1136     6526.1499       1.66758224E-02
    1137     6528.6401       1.63216945E-02
    1138     6531.1299       1.61024816E-02
    1139     6533.6201       1.58017501E-02
    1140     6536.1099       1.56203378E-02
    1141     6538.6001       1.52818933E-02
    1142     6541.0898       1.49253234E-02
    1143     6543.5801       1.48673523E-02
    1144     6546.0698       1.45567693E-02
    1145     6548.5601       1.43618016E-02
    1146     6551.0498       1.41573977E-02
    1147     6553.5400       1.38700744E-02
    1148     6556.0298       1.34236533E-02
    1149     6558.5200       1.34294434E-02
    1150     6561.0103       1.30224582E-02
    1151     6563.5000       1.29384305E-02
    1152     6565.9902       1.26412306E-02
    1153     6568.4800       1.23958793E-02
    1154     6570.9702       1.22134220E-02
    1155     6573.4600       1.20067224E-02
    1156     6575.9502       1.17515186E-02
    1157     6578.4399       1.15169939E-02
    1158     6580.9302       1.13375075E-02
    1159     6583.4199       1.11630252E-02
    1160     6585.9102       1.08903553E-02
    1161     6588.3999       1.07295644E-02
    1162     6590.8901       1.05474424E-02
    1163     6593.3799       1.02973580E-02
    1164     6595.8701       1.02860071E-02
    1165     6598.3599       9.94834118E-03
    1166     6600.8501       9.71107464E-03
    1167     6603.3398       9.45787877E-03
    1168     6605.8301       9.44963377E-03
    1169     6608.3198       9.25611053E-03
    1170     6610.8101       9.21870396E-03
    1171     6613.2998       8.98411684E-03
    1172     6615.7900       8.89693573E-03
    1173     6618.2798       8.60370509E-03
    1174     6620.7700       8.37815739E-03
    1175     6623.2603       8.35274905E-03
    1176     6625.7500       8.26537609E-03
    1177     6628.2402       7.93894473E-03
    1178     6630.7300       7.91090354E-03
    1179     6633.2202       7.73299020E-03
    1180     6635.7100       7.58908642E-03
    1181     6638.2002       7.39489216E-03
    1182     6640.6899       7.29747210E-03
    1183     6643.1802       7.16922851E-03
    1184     6645.6699       7.05207419E-03
    1185     6648.1602       6.92551490E-03
    1186     6650.6499       6.74276892E-03
    1187     6653.1401       6.65493961E-03
    1188     6655.6299       6.61397167E-03
    1189     6658.1201       6.54367730E-03
    1190     6660.6099       6.34161942E-03
    1191     6663.1001       6.19620550E-03
    1192     6665.5898       6.14735857E-03
    1193     6668.0801       6.03082497E-03
    1194     6670.5698       5.79408649E-03
    1195     6673.0601       5.78429084E-03
    1196     6675.5498       5.58735058E-03
    1197     6678.0400       5.58647793E-03
    1198     6680.5298       5.44652855E-03
    1199     6683.0200       5.29410364E-03
    1200     6685.5103       5.18416846E-03
    1201     6688.0000       5.08579239E-03
    1202     6690.4902       5.02307247E-03
    1203     6692.9800       4.92876489E-03
    1204     6695.4702       4.87575401E-03
    1205     6697.9600       4.72576078E-03
    1206     6700.4502       4.71224263E-03
    1207     6702.9399       4.68848925E-03
    1208     6705.4302       4.52072779E-03
    1209     6707.9199       4.42801975E-03
    1210     6710.4102       4.28804196E-03
    1211     6712.8999       4.24249889E-03
    1212     6715.3901       4.19809949E-03
    1213     6717.8799       4.18465165E-03
    1214     6720.3701       4.03519068E-03
    1215     6722.8599       3.95432161E-03
    1216     6725.3501       3.89547064E-03
    1217     6727.8398       3.81125230E-03
    1218     6730.3301       3.75895295E-03
    1219     6732.8198       3.68554145E-03
    1220     6735.3101       3.57260252E-03
    1221     6737.7998       3.52334464E-03
    1222     6740.2900       3.49223637E-03
    1223     6742.7798       3.43102869E-03
    1224     6745.2700       3.32317082E-03
    1225     6747.7603       3.27874976E-03
    1226     6750.2500       3.28283338E-03
    1227     6752.7402       3.14052776E-03
    1228     6755.2300       3.06522590E-03
    1229     6757.7202       3.13645788E-03
    1230     6760.2100       3.01965233E-03
    1231     6762.7002       2.97541264E-03
    1232     6765.1899       2.85003916E-03
    1233     6767.6802       2.87514646E-03
    1234     6770.1699       2.76561501E-03
    1235     6772.6602       2.77764630E-03
    1236     6775.1499       2.72812881E-03
    1237     6777.6401       2.65101041E-03
    1238     6780.1299       2.53499090E-03
    1239     6782.6201       2.44469452E-03
    1240     6785.1099       2.46007228E-03
    1241     6787.6001       2.43396405E-03
    1242     6790.0898       2.38485867E-03
    1243     6792.5801       2.38435715E-03
    1244     6795.0698       2.30919616E-03
    1245     6797.5601       2.31806748E-03
    1246     6800.0498       2.20149662E-03
    1247     6802.5400       2.24589743E-03
    1248     6805.0298       2.20142677E-03
    1249     6807.5200       2.15137471E-03
    1250     6810.0103       2.12428160E-03
    1251     6812.5000       2.04012939E-03
    1252     6814.9902       1.95645448E-03
    1253     6817.4800       1.94886490E-03
    1254     6819.9702       1.90371461E-03
    1255     6822.4600       1.89959048E-03
    1256     6824.9502       1.80431758E-03
    1257     6827.4399       1.75653165E-03
    1258     6829.9302       1.78618298E-03
    1259     6832.4199       1.67164439E-03
    1260     6834.9102       1.74739480E-03
    1261     6837.3999       1.68408290E-03
    1262     6839.8901       1.67466723E-03
    1263     6842.3799       1.62051211E-03
    1264     6844.8701       1.58699462E-03
    1265     6847.3599       1.53191853E-03
    1266     6849.8501       1.59254530E-03
    1267     6852.3398       1.51554833E-03
    1268     6854.8301       1.46751886E-03
    1269     6857.3198       1.43922283E-03
    1270     6859.8101       1.40831526E-03
    1271     6862.2998       1.34174805E-03
    1272     6864.7900       1.35602755E-03
    1273     6867.2798       1.34123873E-03
    1274     6869.7700       1.29943225E-03
    1275     6872.2603       1.31882727E-03
    1276     6874.7500       1.30558084E-03
    1277     6877.2402       1.25427288E-03
    1278     6879.7300       1.27731240E-03
    1279     6882.2202       1.28016598E-03
    1280     6884.7100       1.12691626E-03
    1281     6887.2002       1.15354685E-03
    1282     6889.6899       1.15718949E-03
    1283     6892.1802       1.10114703E-03
    1284     6894.6699       1.14032300E-03
    1285     6897.1602       1.12719100E-03
    1286     6899.6499       1.12022599E-03
    1287     6902.1401       1.08331267E-03
    1288     6904.6299       1.06787612E-03
    1289     6907.1201       1.04316871E-03
    1290     6909.6099       1.01672602E-03
    1291     6912.1001       9.54422925E-04
    1292     6914.5898       1.01860566E-03
    1293     6917.0801       9.74005030E-04
    1294     6919.5698       9.38425655E-04
    1295     6922.0601       9.62337188E-04
    1296     6924.5498       9.28249210E-04
    1297     6927.0400       9.18810605E-04
    1298     6929.5298       9.23669315E-04
    1299     6932.0200       9.07742535E-04
    1300     6934.5103       9.06942529E-04
    1301     6937.0000       8.63979862E-04
    1302     6939.4902       8.87785107E-04
    1303     6941.9800       8.51703517E-04
    1304     6944.4702       8.25324387E-04
    1305     6946.9600       8.28517135E-04
    1306     6949.4502       8.16822750E-04
    1307     6951.9399       8.04730982E-04
    1308     6954.4302       7.58881215E-04
    1309     6956.9199       7.75776105E-04
    1310     6959.4102       7.87675264E-04
    1311     6961.8999       7.05814571E-04
    1312     6964.3901       7.27646053E-04
    1313     6966.8799       7.31241656E-04
    1314     6969.3701       7.09344575E-04
    1315     6971.8599       6.93455571E-04
    1316     6974.3501       7.08499923E-04
    1317     6976.8398       6.80064026E-04
    1318     6979.3301       7.11804838E-04
    1319     6981.8198       6.48093526E-04
    1320     6984.3101       6.24176115E-04
    1321     6986.7998       6.48996560E-04
    1322     6989.2900       6.49285037E-04
    1323     6991.7798       6.17489044E-04
    1324     6994.2700       6.42094994E-04
    1325     6996.7603       5.99177205E-04
    1326     6999.2500       6.23581291E-04
    1327     7001.7402       5.92155091E-04
    1328     7004.2300       5.99846302E-04
    1329     7006.7202       5.83679241E-04
    1330     7009.2100       5.61792869E-04
    1331     7011.7002       5.47080417E-04
    1332     7014.1899       5.68582502E-04
    1333     7016.6802       4.92128078E-04
    1334     7019.1699       5.60587039E-04
    1335     7021.6602       5.57632186E-04
    1336     7024.1499       4.95762157E-04
    1337     7026.6401       5.29474462E-04
    1338     7029.1299       5.58381435E-04
    1339     7031.6201       5.39529370E-04
    1340     7034.1099       5.31700789E-04
    1341     7036.6001       4.68452345E-04
    1342     7039.0898       4.94752661E-04
    1343     7041.5801       4.97968984E-04
    1344     7044.0698       4.68709302E-04
    1345     7046.5601       4.72075364E-04
    1346     7049.0498       4.70069994E-04
    1347     7051.5400       4.59720381E-04
    1348     7054.0298       4.79052018E-04
    1349     7056.5200       4.31375869E-04
    1350     7059.0103       4.77684778E-04
    1351     7061.5000       4.71440551E-04
    1352     7063.9902       4.90344712E-04
    1353     7066.4800       4.46459861E-04
    1354     7068.9702       4.66842612E-04
    1355     7071.4600       4.16496827E-04
    1356     7073.9502       4.24771104E-04
    1357     7076.4399       4.49779036E-04
    1358     7078.9302       4.58645285E-04
    1359     7081.4199       4.13458969E-04
    1360     7083.9102       3.92110931E-04
    1361     7086.3999       4.45555488E-04
    1362     7088.8901       3.99515877E-04
    1363     7091.3799       3.97569296E-04
    1364     7093.8701       3.92825925E-04
    1365     7096.3599       4.16556839E-04
    1366     7098.8501       3.57334386E-04
    1367     7101.3398       3.95923562E-04
    1368     7103.8301       4.11005516E-04
    1369     7106.3198       3.83263483E-04
    1370     7108.8101       4.24141763E-04
    1371     7111.2998       3.65678075E-04
    1372     7113.7900       3.74355383E-04
    1373     7116.2798       3.86016996E-04
    1374     7118.7700       3.71544331E-04
    1375     7121.2603       3.96725198E-04
    1376     7123.7500       3.43619962E-04
    1377     7126.2402       4.21848817E-04
    1378     7128.7300       3.96898016E-04
    1379     7131.2202       3.93291004E-04
    1380     7133.7100       3.75192671E-04
    1381     7136.2002       3.77804128E-04
    1382     7138.6899       3.91942100E-04
    1383     7141.1802       3.68288951E-04
    1384     7143.6699       3.54949851E-04
    1385     7146.1602       3.71191738E-04
    1386     7148.6499       3.55039141E-04
    1387     7151.1401       3.87114356E-04
    1388     7153.6299       3.61065089E-04
    1389     7156.1201       3.68086854E-04
    1390     7158.6099       3.58613324E-04
    1391     7161.1001       3.47558700E-04
    1392     7163.5898       3.53492855E-04
    1393     7166.0801       3.67830537E-04
    1394     7168.5698       3.74446274E-04
    1395     7171.0601       3.54146468E-04
    1396     7173.5498       3.60187434E-04
    1397     7176.0400       3.46046989E-04
    1398     7178.5298       3.45422566E-04
    1399     7181.0200       3.43747990E-04
    1400     7183.5103       3.52984236E-04
    1401     7186.0000       3.57290759E-04
    1402     7188.4902       3.27871501E-04
    1403     7190.9800       3.10884498E-04
    1404     7193.4702       3.42105894E-04
    1405     7195.9600       3.51831724E-04
    1406     7198.4502       3.32553114E-04
    1407     7200.9399       3.11996875E-04
    1408     7203.4302       3.56820994E-04
    1409     7205.9199       3.29618051E-04
    1410     7208.4102       3.35694378E-04
    1411     7210.8999       3.25382309E-04
    1412     7213.3901       3.11386888E-04
    1413     7215.8799       3.52744944E-04
    1414     7218.3701       3.40425817E-04
    1415     7220.8599       3.57844634E-04
    1416     7223.3501       3.29053990E-04
    1417     7225.8398       3.27582820E-04
    1418     7228.3301       3.05817259E-04
    1419     7230.8198       3.12278629E-04
    1420     7233.3101       3.22293665E-04
    1421     7235.7998       3.02750967E-04
    1422     7238.2900       3.23184766E-04
    1423     7240.7798       3.08903167E-04
    1424     7243.2700       3.17161903E-04
    1425     7245.7603       3.27915594E-04
    1426     7248.2500       3.35662102E-04
    1427     7250.7402       3.18534847E-04
    1428     7253.2300       3.41125502E-04
    1429     7255.7202       3.05199501E-04
    1430     7258.2100       3.20458697E-04
    1431     7260.7002       3.20940802E-04
    1432     7263.1899       3.38469166E-04
    1433     7265.6802       3.09660303E-04
    1434     7268.1699       3.12152260E-04
    1435     7270.6602       3.12662072E-04
    1436     7273.1499       3.41200212E-04
    1437     7275.6401       2.83189875E-04
    1438     7278.1299       2.96427694E-04
    1439     7280.6201       3.22047359E-04
    1440     7283.1099       3.08749499E-04
    1441     7285.6001       2.88567040E-04
    1442     7288.0898       2.86316848E-04
    1443     7290.5801       2.90662429E-04
    1444     7293.0698       2.98755360E-04
    1445     7295.5601       2.98573112E-04
    1446     7298.0498       3.17640137E-04
    1447     7300.5400       3.21423373E-04
    1448     7303.0298       3.16916499E-04
    1449     7305.5200       2.94384488E-04
    1450     7308.0103       2.82939436E-04
    1451     7310.5000       3.02958942E-04
    1452     7312.9902       2.89997086E-04
    1453     7315.4800       2.87761010E-04
    1454     7317.9702       3.10050818E-04
    1455     7320.4600       2.97925202E-04
    1456     7322.9502       3.01914581E-04
    1457     7325.4399       2.88746087E-04
    1458     7327.9302       2.89199204E-04
    1459     7330.4199       2.80031381E-04
    1460     7332.9102       2.96891638E-04
    1461     7335.3999       2.75027473E-04
    1462     7337.8901       3.03764624E-04
    1463     7340.3799       2.68144358E-04
    1464     7342.8701       2.99137348E-04
    1465     7345.3599       2.83593719E-04
    1466     7347.8501       2.64285773E-04
    1467     7350.3398       2.69271724E-04
    1468     7352.8301       3.09164374E-04
    1469     7355.3198       2.86731345E-04
    1470     7357.8101       2.79140833E-04
    1471     7360.2998       2.76616571E-04
    1472     7362.7900       2.70238379E-04
    1473     7365.2798       2.80214124E-04
    1474     7367.7700       2.49967532E-04
    1475     7370.2603       2.84359470E-04
    1476     7372.7500       3.05499270E-04
    1477     7375.2402       2.66414048E-04
    1478     7377.7300       2.76735140E-04
    1479     7380.2202       2.98213388E-04
    1480     7382.7100       3.06650414E-04
    1481     7385.2002       3.03994777E-04
    1482     7387.6899       2.68808886E-04
    1483     7390.1802       2.68996169E-04
    1484     7392.6699       2.88229232E-04
    1485     7395.1602       3.19851621E-04
    1486     7397.6499       2.87287490E-04
    1487     7400.1401       2.67607800E-04
    1488     7402.6299       2.43992487E-04
    1489     7405.1201       2.37742701E-04
    1490     7407.6099       2.82474619E-04
    1491     7410.1001       2.70450051E-04
    1492     7412.5898       2.84623238E-04
    1493     7415.0801       2.77968240E-04
    1494     7417.5698       2.62364454E-04
    1495     7420.0601       2.78984138E-04
    1496     7422.5498       2.50604353E-04
    1497     7425.0400       2.29276542E-04
    1498     7427.5298       2.37408560E-04
    1499     7430.0200       2.82791443E-04
    1500     7432.5103       2.79941713E-04
    1501     7435.0000       2.64431816E-04
    1502     7437.4902       2.63819529E-04
    1503     7439.9800       2.56675703E-04
    1504     7442.4702       2.65569746E-04
    1505     7444.9600       2.61811569E-04
    1506     7447.4502       2.89161515E-04
    1507     7449.9399       2.65134673E-04
    1508     7452.4302       2.67137628E-04
    1509     7454.9199       2.54157523E-04
    1510     7457.4102       2.63097929E-04
    1511     7459.8999       2.41750648E-04
    1512     7462.3901       2.33775791E-04
    1513     7464.8799       2.39376794E-04
    1514     7467.3701       2.47860764E-04
    1515     7469.8599       2.50402722E-04
    1516     7472.3501       2.34378298E-04
    1517     7474.8398       2.63895316E-04
    1518     7477.3301       2.33251281E-04
    1519     7479.8198       2.40230089E-04
    1520     7482.3101       2.63050431E-04
    1521     7484.7998       2.55281455E-04
    1522     7487.2900       2.48783501E-04
    1523     7489.7798       2.30392354E-04
    1524     7492.2700       2.35907966E-04
    1525     7494.7603       2.49876379E-04
    1526     7497.2500       2.84290727E-04
    1527     7499.7402       2.61787529E-04
    1528     7502.2300       2.60688190E-04
    1529     7504.7202       2.38448381E-04
    1530     7507.2100       2.45598902E-04
    1531     7509.7002       2.48654513E-04
    1532     7512.1899       2.48821627E-04
    1533     7514.6802       2.67202180E-04
    1534     7517.1699       2.42518057E-04
    1535     7519.6602       2.72318313E-04
    1536     7522.1499       2.54678016E-04
    1537     7524.6401       2.76379113E-04
    1538     7527.1299       2.53564242E-04
    1539     7529.6201       2.33122031E-04
    1540     7532.1099       2.46836920E-04
    1541     7534.6001       2.53243576E-04
    1542     7537.0898       2.66661955E-04
    1543     7539.5801       2.54181010E-04
    1544     7542.0698       2.32589315E-04
    1545     7544.5601       2.30056408E-04
    1546     7547.0498       2.73985323E-04
    1547     7549.5400       2.58238346E-04
    1548     7552.0298       2.86712340E-04
    1549     7554.5200       2.47761898E-04
    1550     7557.0103       2.23467796E-04
    1551     7559.5000       2.31657847E-04
    1552     7561.9902       2.58652843E-04
    1553     7564.4800       2.64818082E-04
    1554     7566.9702       2.38036358E-04
    1555     7569.4600       2.51121237E-04
    1556     7571.9502       2.38311099E-04
    1557     7574.4399       2.45428528E-04
    1558     7576.9302       2.65453302E-04
    1559     7579.4199       2.47767573E-04
    1560     7581.9102       2.31949496E-04
    1561     7584.3999       2.61308072E-04
    1562     7586.8901       2.69378477E-04
    1563     7589.3799       2.63207185E-04
    1564     7591.8701       2.43234448E-04
    1565     7594.3599       2.77526968E-04
    1566     7596.8501       2.62539834E-04
    1567     7599.3398       2.30983191E-04
    1568     7601.8301       2.76546867E-04
    1569     7604.3198       2.66797579E-04
    1570     7606.8101       2.57169682E-04
    1571     7609.2998       2.39329413E-04
    1572     7611.7900       2.54846294E-04
    1573     7614.2798       2.68892501E-04
    1574     7616.7700       2.68083095E-04
    1575     7619.2603       2.55572493E-04
    1576     7621.7500       2.35824118E-04
    1577     7624.2402       2.56277039E-04
    1578     7626.7300       2.54784420E-04
    1579     7629.2202       2.40321475E-04
    1580     7631.7100       2.69498356E-04
    1581     7634.2002       2.81027926E-04
    1582     7636.6899       2.79063795E-04
    1583     7639.1802       2.50025420E-04
    1584     7641.6699       2.60509376E-04
    1585     7644.1602       2.72080273E-04
    1586     7646.6499       2.57616630E-04
    1587     7649.1401       2.53233826E-04
    1588     7651.6299       2.42519629E-04
    1589     7654.1201       2.18671499E-04
    1590     7656.6099       2.60419998E-04
    1591     7659.1001       2.73011683E-04
    1592     7661.5898       2.81126384E-04
    1593     7664.0801       2.74146587E-04
    1594     7666.5698       2.20069458E-04
    1595     7669.0601       2.30562247E-04
    1596     7671.5498       2.68205331E-04
    1597     7674.0400       2.36494729E-04
    1598     7676.5298       2.47221848E-04
    1599     7679.0200       2.48979195E-04
    1600     7681.5103       2.39171684E-04
    1601     7684.0000       2.65508861E-04
    1602     7686.4902       2.57403852E-04
    1603     7688.9800       2.33310799E-04
    1604     7691.4702       2.49548961E-04
    1605     7693.9600       2.24608128E-04
    1606     7696.4502       2.49541103E-04
    1607     7698.9399       2.55780324E-04
    1608     7701.4302       2.71100871E-04
    1609     7703.9199       2.57451960E-04
    1610     7706.4102       2.46139476E-04
    1611     7708.8999       2.69351556E-04
    1612     7711.3901       2.22690651E-04
    1613     7713.8799       2.45880045E-04
    1614     7716.3701       2.52606347E-04
    1615     7718.8599       2.63051887E-04
    1616     7721.3501       2.50387471E-04
    1617     7723.8398       2.43998424E-04
    1618     7726.3301       2.74956372E-04
    1619     7728.8198       2.52209895E-04
    1620     7731.3101       2.41976828E-04
    1621     7733.7998       2.60486209E-04
    1622     7736.2900       2.36092106E-04
    1623     7738.7798       2.93082965E-04
    1624     7741.2700       2.49855511E-04
    1625     7743.7603       2.69338081E-04
    1626     7746.2500       2.62336369E-04
    1627     7748.7402       2.43004266E-04
    1628     7751.2300       2.42419337E-04
    1629     7753.7202       2.85063812E-04
    1630     7756.2100       2.31656246E-04
    1631     7758.7002       2.63989845E-04
    1632     7761.1899       2.64180184E-04
    1633     7763.6802       2.63230468E-04
    1634     7766.1699       2.29444588E-04
    1635     7768.6602       2.49505276E-04
    1636     7771.1499       2.42993468E-04
    1637     7773.6401       2.45512289E-04
    1638     7776.1299       2.50822632E-04
    1639     7778.6201       2.80354405E-04
    1640     7781.1099       2.67153780E-04
    1641     7783.6001       2.66331015E-04
    1642     7786.0898       2.48141441E-04
    1643     7788.5801       2.61932204E-04
    1644     7791.0698       2.29523517E-04
    1645     7793.5601       2.73436861E-04
    1646     7796.0498       2.85443617E-04
    1647     7798.5400       2.78727559E-04
    1648     7801.0298       2.70156830E-04
    1649     7803.5200       2.78633961E-04
    1650     7806.0103       2.62676738E-04
    1651     7808.5000       2.87046423E-04
    1652     7810.9902       2.83427740E-04
    1653     7813.4800       2.80697015E-04
    1654     7815.9702       2.78632826E-04
    1655     7818.4600       2.94892176E-04
    1656     7820.9502       2.79606844E-04
    1657     7823.4399       2.93889258E-04
    1658     7825.9302       2.75060069E-04
    1659     7828.4199       2.73839221E-04
    1660     7830.9102       2.95512174E-04
    1661     7833.3999       2.77310464E-04
    1662     7835.8901       2.67324271E-04
    1663     7838.3799       2.67926574E-04
    1664     7840.8701       3.08637216E-04
    1665     7843.3599       3.06197384E-04
    1666     7845.8501       3.14230361E-04
    1667     7848.3398       2.74841557E-04
    1668     7850.8301       2.79514323E-04
    1669     7853.3198       2.87656265E-04
    1670     7855.8101       2.84557580E-04
    1671     7858.2998       2.79494707E-04
    1672     7860.7900       2.83439353E-04
    1673     7863.2798       3.05639551E-04
    1674     7865.7700       3.18596605E-04
    1675     7868.2603       3.06910893E-04
    1676     7870.7500       2.82279856E-04
    1677     7873.2402       3.32563068E-04
    1678     7875.7300       2.87991250E-04
    1679     7878.2202       2.76254897E-04
    1680     7880.7100       2.89030082E-04
    1681     7883.2002       3.07212409E-04
    1682     7885.6899       2.76518636E-04
    1683     7888.1802       2.93703080E-04
    1684     7890.6699       3.02270288E-04
    1685     7893.1602       2.64787377E-04
    1686     7895.6499       3.23620799E-04
    1687     7898.1401       3.19494138E-04
    1688     7900.6299       2.90882046E-04
    1689     7903.1201       2.92926998E-04
    1690     7905.6099       2.95859878E-04
    1691     7908.1001       3.25813511E-04
    1692     7910.5898       3.31587275E-04
    1693     7913.0801       3.27532296E-04
    1694     7915.5698       2.99704203E-04
    1695     7918.0601       2.77538929E-04
    1696     7920.5498       2.88622046E-04
    1697     7923.0400       2.77337269E-04
    1698     7925.5298       2.96392245E-04
    1699     7928.0200       2.87455216E-04
    1700     7930.5103       3.27280606E-04
    1701     7933.0000       3.13740515E-04
    1702     7935.4902       3.51118390E-04
    1703     7937.9800       3.02193250E-04
    1704     7940.4702       3.03273817E-04
    1705     7942.9600       3.49115813E-04
    1706     7945.4502       3.15613812E-04
    1707     7947.9399       3.13602563E-04
    1708     7950.4302       3.02639615E-04
    1709     7952.9199       3.12726072E-04
    1710     7955.4102       2.69489654E-04
    1711     7957.8999       3.50396876E-04
    1712     7960.3901       3.33307369E-04
    1713     7962.8799       3.13831260E-04
    1714     7965.3701       2.98314815E-04
    1715     7967.8599       3.22368724E-04
    1716     7970.3501       3.01977503E-04
    1717     7972.8398       3.33231408E-04
    1718     7975.3301       3.52410221E-04
    1719     7977.8198       3.47425841E-04
    1720     7980.3101       3.30503448E-04
    1721     7982.7998       3.23824905E-04
    1722     7985.2900       3.50842165E-04
    1723     7987.7798       3.52568284E-04
    1724     7990.2700       3.58574151E-04
    1725     7992.7603       3.11029115E-04
    1726     7995.2500       3.45722015E-04
    1727     7997.7402       3.42909945E-04
    1728     8000.2300       3.22050008E-04
    1729     8002.7202       3.37126607E-04
    1730     8005.2100       3.10624862E-04
    1731     8007.7002       3.69677728E-04
    1732     8010.1899       3.21424159E-04
    1733     8012.6802       3.23831540E-04
    1734     8015.1699       3.33499978E-04
    1735     8017.6602       3.33835080E-04
    1736     8020.1499       3.69355490E-04
    1737     8022.6401       3.09733616E-04
    1738     8025.1299       3.67659348E-04
    1739     8027.6201       3.31897812E-04
    1740     8030.1099       3.47015040E-04
    1741     8032.6001       3.19807499E-04
    1742     8035.0898       3.14038189E-04
    1743     8037.5801       3.53032257E-04
    1744     8040.0698       3.65296961E-04
    1745     8042.5601       3.62449937E-04
    1746     8045.0498       3.71138449E-04
    1747     8047.5400       3.57329031E-04
    1748     8050.0298       3.18273640E-04
    1749     8052.5200       3.29661299E-04
    1750     8055.0103       3.65906977E-04
    1751     8057.5000       3.55897122E-04
    1752     8059.9902       3.60993261E-04
    1753     8062.4800       3.43858963E-04
    1754     8064.9702       3.63373838E-04
    1755     8067.4600       3.68957524E-04
    1756     8069.9502       3.46842688E-04
    1757     8072.4399       3.62826628E-04
    1758     8074.9302       3.70931462E-04
    1759     8077.4199       3.70997906E-04
    1760     8079.9102       3.25716392E-04
    1761     8082.3999       3.44875734E-04
    1762     8084.8901       3.44853208E-04
    1763     8087.3799       3.50847258E-04
    1764     8089.8701       3.46176268E-04
    1765     8092.3599       3.48310336E-04
    1766     8094.8501       3.86935018E-04
    1767     8097.3398       3.01456690E-04
    1768     8099.8301       3.16991936E-04
    1769     8102.3198       3.60527134E-04
    1770     8104.8101       3.68065492E-04
    1771     8107.2998       3.45883920E-04
    1772     8109.7900       3.14918201E-04
    1773     8112.2798       3.00387648E-04
    1774     8114.7700       3.31080926E-04
    1775     8117.2603       3.00124404E-04
    1776     8119.7500       3.37358273E-04
    1777     8122.2402       3.70256254E-04
    1778     8124.7300       3.22802429E-04
    1779     8127.2202       3.72603099E-04
    1780     8129.7100       3.53855605E-04
    1781     8132.2002       3.28379829E-04
    1782     8134.6899       2.98753497E-04
    1783     8137.1802       3.30115086E-04
    1784     8139.6699       3.35098535E-04
    1785     8142.1602       3.29705479E-04
    1786     8144.6499       3.21320374E-04
    1787     8147.1401       3.33097589E-04
    1788     8149.6299       3.38450831E-04
    1789     8152.1201       3.15196841E-04
    1790     8154.6099       3.04098678E-04
    1791     8157.1001       3.34769546E-04
    1792     8159.5898       3.38686805E-04
    1793     8162.0801       3.06147034E-04
    1794     8164.5698       3.36690398E-04
    1795     8167.0601       3.42232001E-04
    1796     8169.5498       3.55765456E-04
    1797     8172.0400       2.92129058E-04
    1798     8174.5298       3.56175646E-04
    1799     8177.0200       3.61614977E-04
    1800     8179.5103       3.13062017E-04
    1801     8182.0000       3.44760454E-04
    1802     8184.4902       3.69695830E-04
    1803     8186.9800       3.40700150E-04
    1804     8189.4702       3.70886177E-04
    1805     8191.9600       3.29474860E-04
    1806     8194.4502       3.16633203E-04
    1807     8196.9404       3.37587611E-04
    1808     8199.4297       3.70845431E-04
    1809     8201.9199       3.46508896E-04
    1810     8204.4102       3.35465418E-04
    1811     8206.9004       3.36832920E-04
    1812     8209.3896       3.51538416E-04
    1813     8211.8799       3.61600629E-04
    1814     8214.3701       3.40363011E-04
    1815     8216.8604       3.40925151E-04
    1816     8219.3496       3.48835427E-04
    1817     8221.8398       3.46153654E-04
    1818     8224.3301       3.14765377E-04
    1819     8226.8203       3.86210508E-04
    1820     8229.3096       3.39737919E-04
    1821     8231.7998       3.39457416E-04
    1822     8234.2900       3.54037446E-04
    1823     8236.7803       3.38299869E-04
    1824     8239.2695       3.72815994E-04
    1825     8241.7598       3.90332512E-04
    1826     8244.2500       3.57729761E-04
    1827     8246.7402       3.44983098E-04
    1828     8249.2305       3.37357342E-04
    1829     8251.7197       3.58900375E-04
    1830     8254.2100       3.64499167E-04
    1831     8256.7002       3.68418376E-04
    1832     8259.1904       3.98710952E-04
    1833     8261.6797       3.25660920E-04
    1834     8264.1699       3.74339463E-04
    1835     8266.6602       3.59696278E-04
    1836     8269.1504       3.32568423E-04
    1837     8271.6396       3.64050677E-04
    1838     8274.1299       3.42855055E-04
    1839     8276.6201       3.99729965E-04
    1840     8279.1104       3.60137288E-04
    1841     8281.5996       4.08054068E-04
    1842     8284.0898       3.18271603E-04
    1843     8286.5801       3.29892093E-04
    1844     8289.0703       3.84714396E-04
    1845     8291.5596       4.00501711E-04
    1846     8294.0498       3.82926402E-04
    1847     8296.5400       3.75985139E-04
    1848     8299.0303       3.47377761E-04
    1849     8301.5195       3.70648457E-04
    1850     8304.0098       4.01140918E-04
    1851     8306.5000       3.70345806E-04
    1852     8308.9902       3.56246717E-04
    1853     8311.4805       3.83377832E-04
    1854     8313.9697       3.98012169E-04
    1855     8316.4600       4.03489335E-04
    1856     8318.9502       4.09809698E-04
    1857     8321.4404       3.69980466E-04
    1858     8323.9297       3.70750990E-04
    1859     8326.4199       3.86880478E-04
    1860     8328.9102       4.31129214E-04
    1861     8331.4004       3.55509605E-04
    1862     8333.8896       3.83405742E-04
    1863     8336.3799       3.68570734E-04
    1864     8338.8701       3.75975389E-04
    1865     8341.3604       3.88791639E-04
    1866     8343.8496       4.17610398E-04
    1867     8346.3398       3.89399414E-04
    1868     8348.8301       3.79963836E-04
    1869     8351.3203       3.63558996E-04
    1870     8353.8096       4.20365075E-04
    1871     8356.2998       4.18614480E-04
    1872     8358.7900       4.16833325E-04
    1873     8361.2803       3.73676419E-04
    1874     8363.7695       3.85077059E-04
    1875     8366.2598       4.04330669E-04
    1876     8368.7500       3.74410040E-04
    1877     8371.2402       4.20318247E-04
    1878     8373.7305       4.02732694E-04
    1879     8376.2197       3.94817267E-04
    1880     8378.7100       3.74747557E-04
    1881     8381.2002       3.90841276E-04
    1882     8383.6904       4.02770966E-04
    1883     8386.1797       3.85440333E-04
    1884     8388.6699       3.75670905E-04
    1885     8391.1602       3.95271432E-04
    1886     8393.6504       4.46903112E-04
    1887     8396.1396       4.15396440E-04
    1888     8398.6299       4.09871544E-04
    1889     8401.1201       3.47481517E-04
    1890     8403.6104       3.89030669E-04
    1891     8406.0996       3.65221320E-04
    1892     8408.5898       4.05448518E-04
    1893     8411.0801       3.90364614E-04
    1894     8413.5703       3.97701369E-04
    1895     8416.0596       4.32976405E-04
    1896     8418.5498       4.13259666E-04
    1897     8421.0400       4.05338418E-04
    1898     8423.5303       4.30781045E-04
    1899     8426.0195       4.41455282E-04
    1900     8428.5098       4.15934483E-04
    1901     8431.0000       4.26442624E-04
    1902     8433.4902       3.91455484E-04
    1903     8435.9805       4.25375794E-04
    1904     8438.4697       4.08481923E-04
    1905     8440.9600       4.18948010E-04
    1906     8443.4502       3.71060305E-04
    1907     8445.9404       4.43559955E-04
    1908     8448.4297       4.29031235E-04
    1909     8450.9199       4.02385398E-04
    1910     8453.4102       3.90008558E-04
    1911     8455.9004       4.09242086E-04
    1912     8458.3896       3.92559217E-04
    1913     8460.8799       4.10538429E-04
    1914     8463.3701       3.80921294E-04
    1915     8465.8604       4.21969511E-04
    1916     8468.3496       3.98752250E-04
    1917     8470.8398       4.13727190E-04
    1918     8473.3301       3.85426945E-04
    1919     8475.8203       4.12344700E-04
    1920     8478.3096       4.30191867E-04
    1921     8480.7998       4.18717973E-04
    1922     8483.2900       4.36365168E-04
    1923     8485.7803       4.39996540E-04
    1924     8488.2695       3.62364925E-04
    1925     8490.7598       3.60170787E-04
    1926     8493.2500       4.21576027E-04
    1927     8495.7402       4.17665346E-04
    1928     8498.2305       3.83209583E-04
    1929     8500.7197       4.04185033E-04
    1930     8503.2100       4.15834715E-04
    1931     8505.7002       4.09974426E-04
    1932     8508.1904       3.86693922E-04
    1933     8510.6797       4.57286544E-04
    1934     8513.1699       4.32480709E-04
    1935     8515.6602       4.15314629E-04
    1936     8518.1504       4.14984126E-04
    1937     8520.6396       4.52178530E-04
    1938     8523.1299       3.70450056E-04
    1939     8525.6201       4.52967302E-04
    1940     8528.1104       4.12523630E-04
    1941     8530.5996       4.30847402E-04
    1942     8533.0898       4.24966740E-04
    1943     8535.5801       4.27544786E-04
    1944     8538.0703       4.09342232E-04
    1945     8540.5596       4.01045982E-04
    1946     8543.0498       3.96682008E-04
    1947     8545.5400       4.38834744E-04
    1948     8548.0303       4.40031610E-04
    1949     8550.5195       4.29446722E-04
    1950     8553.0098       4.03334299E-04
    1951     8555.5000       4.05413593E-04
    1952     8557.9902       3.65530461E-04
    1953     8560.4805       4.10713197E-04
    1954     8562.9697       4.18544863E-04
    1955     8565.4600       4.09998407E-04
    1956     8567.9502       4.21152101E-04
    1957     8570.4404       4.15532326E-04
    1958     8572.9297       4.31156775E-04
    1959     8575.4199       4.45808400E-04
    1960     8577.9102       4.01205238E-04
    1961     8580.4004       3.96632910E-04
    1962     8582.8896       4.16306662E-04
    1963     8585.3799       4.14777955E-04
    1964     8587.8701       4.26387240E-04
    1965     8590.3604       4.55752597E-04
    1966     8592.8496       3.98670934E-04
    1967     8595.3398       3.68955254E-04
    1968     8597.8301       4.11949528E-04
    1969     8600.3203       4.30233311E-04
    1970     8602.8096       4.29144391E-04
    1971     8605.2998       4.32686240E-04
    1972     8607.7900       4.19062766E-04
    1973     8610.2803       4.05821193E-04
    1974     8612.7695       4.04558261E-04
    1975     8615.2598       4.15806309E-04
    1976     8617.7500       3.98678007E-04
    1977     8620.2402       4.71280015E-04
    1978     8622.7305       4.05950181E-04
    1979     8625.2197       4.66243859E-04
    1980     8627.7100       4.59096802E-04
    1981     8630.2002       4.81076655E-04
    1982     8632.6904       4.52813227E-04
    1983     8635.1797       4.08694032E-04
    1984     8637.6699       4.45751561E-04
    1985     8640.1602       4.33371810E-04
    1986     8642.6504       4.28817497E-04
    1987     8645.1396       4.48204868E-04
    1988     8647.6299       4.29370411E-04
    1989     8650.1201       4.54108755E-04
    1990     8652.6104       4.54805180E-04
    1991     8655.0996       4.78126691E-04
    1992     8657.5898       4.95956745E-04
    1993     8660.0801       4.22793964E-04
    1994     8662.5703       4.20611585E-04
    1995     8665.0596       4.29835141E-04
    1996     8667.5498       4.36809729E-04
    1997     8670.0400       4.62670927E-04
    1998     8672.5303       4.53839719E-04
    1999     8675.0195       4.88136895E-04
    2000     8677.5098       4.31893801E-04
    2001     8680.0000       4.58816648E-04
    2002     8682.4902       4.55578556E-04
    2003     8684.9805       4.02155682E-04
    2004     8687.4697       4.35302733E-04
    2005     8689.9600       4.90228878E-04
    2006     8692.4502       4.54466033E-04
    2007     8694.9404       4.66836442E-04
    2008     8697.4297       4.86449164E-04
    2009     8699.9199       4.47545870E-04
    2010     8702.4102       4.81849827E-04
    2011     8704.9004       3.92971793E-04
    2012     8707.3896       4.74327971E-04
    2013     8709.8799       4.27961582E-04
    2014     8712.3701       4.31125867E-04
    2015     8714.8604       4.13788192E-04
    2016     8717.3496       4.50492516E-04
    2017     8719.8398       4.30687156E-04
    2018     8722.3301       4.49568179E-04
    2019     8724.8203       4.36634902E-04
    2020     8727.3096       4.81216586E-04
    2021     8729.7998       4.62732336E-04
    2022     8732.2900       4.15618182E-04
    2023     8734.7803       4.37261071E-04
    2024     8737.2695       4.94033797E-04
    2025     8739.7598       4.79001290E-04
    2026     8742.2500       4.24612255E-04
    2027     8744.7402       3.86696978E-04
    2028     8747.2305       4.06155217E-04
    2029     8749.7197       4.88181075E-04
    2030     8752.2100       4.46903548E-04
    2031     8754.7002       3.72664479E-04
    2032     8757.1904       4.31582041E-04
    2033     8759.6797       4.27203428E-04
    2034     8762.1699       4.12979280E-04
    2035     8764.6602       4.22742945E-04
    2036     8767.1504       4.37202689E-04
    2037     8769.6396       4.53321787E-04
    2038     8772.1299       4.08923370E-04
    2039     8774.6201       4.35056776E-04
    2040     8777.1104       3.83471604E-04
    2041     8779.5996       4.02085803E-04
    2042     8782.0898       4.64419078E-04
    2043     8784.5801       4.45888611E-04
    2044     8787.0703       3.73043033E-04
    2045     8789.5596       4.27660911E-04
    2046     8792.0498       3.79288016E-04
    2047     8794.5400       4.43798403E-04
    2048     8797.0303       4.39327239E-04

