LRIS B FILTER, printed from ~mhc/keck/filters/filter_b.spc  
by mhc 9/8/97.


Column     Wavelength      Value
  
  
       1     3700.0000       5.22374325E-02
       2     3702.4900       4.82954681E-02
       3     3704.9800       4.73195538E-02
       4     3707.4700       5.33403307E-02
       5     3709.9600       5.31685352E-02
       6     3712.4500       5.57370335E-02
       7     3714.9399       4.70562354E-02
       8     3717.4299       4.76652682E-02
       9     3719.9199       6.21279404E-02
      10     3722.4099       6.64892346E-02
      11     3724.8999       6.17446676E-02
      12     3727.3899       6.40777647E-02
      13     3729.8799       6.08355030E-02
      14     3732.3701       6.39939755E-02
      15     3734.8601       5.79741448E-02
      16     3737.3501       7.36289248E-02
      17     3739.8401       7.17809796E-02
      18     3742.3301       7.37493932E-02
      19     3744.8201       7.17764795E-02
      20     3747.3101       7.41984695E-02
      21     3749.8000       8.55771303E-02
      22     3752.2900       7.51274973E-02
      23     3754.7800       7.89891779E-02
      24     3757.2700       8.43151659E-02
      25     3759.7600       8.50071236E-02
      26     3762.2500       9.65919048E-02
      27     3764.7400       9.57015008E-02
      28     3767.2300       9.83042866E-02
      29     3769.7200       1.00807115E-01
      30     3772.2100       1.04685858E-01
      31     3774.7000       1.04128756E-01
      32     3777.1899       1.07158989E-01
      33     3779.6799       1.06895536E-01
      34     3782.1699       1.13436878E-01
      35     3784.6599       1.11339204E-01
      36     3787.1499       1.26055837E-01
      37     3789.6399       1.18270159E-01
      38     3792.1299       1.36283547E-01
      39     3794.6201       1.33995041E-01
      40     3797.1101       1.27482504E-01
      41     3799.6001       1.40251160E-01
      42     3802.0901       1.47239178E-01
      43     3804.5801       1.48090571E-01
      44     3807.0701       1.48237705E-01
      45     3809.5601       1.51823327E-01
      46     3812.0500       1.65498450E-01
      47     3814.5400       1.65531069E-01
      48     3817.0300       1.60666466E-01
      49     3819.5200       1.76861823E-01
      50     3822.0100       1.71689898E-01
      51     3824.5000       1.84337720E-01
      52     3826.9900       1.88430205E-01
      53     3829.4800       1.88947588E-01
      54     3831.9700       1.97369099E-01
      55     3834.4600       2.00540885E-01
      56     3836.9500       2.06617758E-01
      57     3839.4399       2.15326428E-01
      58     3841.9299       2.13491738E-01
      59     3844.4199       2.23556116E-01
      60     3846.9099       2.27422699E-01
      61     3849.3999       2.44698554E-01
      62     3851.8899       2.45308459E-01
      63     3854.3799       2.53461659E-01
      64     3856.8701       2.49955654E-01
      65     3859.3601       2.66336679E-01
      66     3861.8501       2.69484758E-01
      67     3864.3401       2.72771358E-01
      68     3866.8301       2.82565027E-01
      69     3869.3201       2.89389491E-01
      70     3871.8101       3.04059744E-01
      71     3874.3000       3.03744495E-01
      72     3876.7900       3.15219700E-01
      73     3879.2800       3.06561381E-01
      74     3881.7700       3.26859653E-01
      75     3884.2600       3.30821782E-01
      76     3886.7500       3.43687117E-01
      77     3889.2400       3.47815871E-01
      78     3891.7300       3.55180264E-01
      79     3894.2200       3.59019965E-01
      80     3896.7100       3.60887289E-01
      81     3899.2000       3.62866938E-01
      82     3901.6899       3.75790775E-01
      83     3904.1799       3.83720636E-01
      84     3906.6699       3.96048129E-01
      85     3909.1599       3.96823466E-01
      86     3911.6499       4.17279780E-01
      87     3914.1399       4.04979020E-01
      88     3916.6299       4.21944380E-01
      89     3919.1201       4.28321421E-01
      90     3921.6101       4.30325449E-01
      91     3924.1001       4.39250708E-01
      92     3926.5901       4.48876619E-01
      93     3929.0801       4.39841747E-01
      94     3931.5701       4.57094133E-01
      95     3934.0601       4.62516010E-01
      96     3936.5500       4.66948062E-01
      97     3939.0400       4.80121881E-01
      98     3941.5300       4.78100181E-01
      99     3944.0200       4.92777824E-01
     100     3946.5100       4.96802926E-01
     101     3949.0000       5.15223742E-01
     102     3951.4900       5.10970592E-01
     103     3953.9800       5.16102552E-01
     104     3956.4700       5.16420722E-01
     105     3958.9600       5.30197144E-01
     106     3961.4500       5.33985019E-01
     107     3963.9399       5.35871327E-01
     108     3966.4299       5.44903994E-01
     109     3968.9199       5.49347341E-01
     110     3971.4099       5.48946738E-01
     111     3973.8999       5.52238226E-01
     112     3976.3899       5.61687946E-01
     113     3978.8799       5.55837154E-01
     114     3981.3701       5.67393899E-01
     115     3983.8601       5.80407023E-01
     116     3986.3501       5.79360127E-01
     117     3988.8401       5.73581576E-01
     118     3991.3301       6.00272894E-01
     119     3993.8201       5.91582537E-01
     120     3996.3101       5.94064832E-01
     121     3998.8000       6.07217968E-01
     122     4001.2900       6.04676008E-01
     123     4003.7800       6.03087306E-01
     124     4006.2700       6.07759476E-01
     125     4008.7600       6.17762625E-01
     126     4011.2500       6.19226694E-01
     127     4013.7400       6.23372078E-01
     128     4016.2300       6.26145363E-01
     129     4018.7200       6.23793721E-01
     130     4021.2100       6.28347039E-01
     131     4023.7000       6.31044507E-01
     132     4026.1899       6.35853052E-01
     133     4028.6799       6.43495202E-01
     134     4031.1699       6.46731257E-01
     135     4033.6599       6.45355225E-01
     136     4036.1499       6.47926271E-01
     137     4038.6399       6.48337007E-01
     138     4041.1299       6.49141014E-01
     139     4043.6201       6.39246047E-01
     140     4046.1101       6.43957019E-01
     141     4048.6001       6.49909556E-01
     142     4051.0901       6.55058503E-01
     143     4053.5801       6.49593234E-01
     144     4056.0701       6.61262572E-01
     145     4058.5601       6.52838111E-01
     146     4061.0500       6.57612324E-01
     147     4063.5400       6.61675692E-01
     148     4066.0300       6.60088181E-01
     149     4068.5200       6.60663366E-01
     150     4071.0100       6.59969926E-01
     151     4073.5000       6.62846327E-01
     152     4075.9900       6.65998220E-01
     153     4078.4800       6.71367884E-01
     154     4080.9700       6.61607504E-01
     155     4083.4600       6.67111397E-01
     156     4085.9500       6.70865834E-01
     157     4088.4399       6.70572281E-01
     158     4090.9299       6.69849396E-01
     159     4093.4199       6.66431725E-01
     160     4095.9099       6.65772676E-01
     161     4098.3999       6.81463122E-01
     162     4100.8901       6.81164086E-01
     163     4103.3799       6.67580485E-01
     164     4105.8701       6.75428867E-01
     165     4108.3599       6.70117974E-01
     166     4110.8501       6.81443870E-01
     167     4113.3398       6.76112771E-01
     168     4115.8301       6.73220396E-01
     169     4118.3198       6.85922503E-01
     170     4120.8101       6.84296846E-01
     171     4123.2998       6.78778946E-01
     172     4125.7900       6.83508515E-01
     173     4128.2798       6.82033241E-01
     174     4130.7700       6.84342265E-01
     175     4133.2598       6.77564740E-01
     176     4135.7500       6.80191278E-01
     177     4138.2402       6.81687832E-01
     178     4140.7300       6.89368010E-01
     179     4143.2202       6.84672594E-01
     180     4145.7100       6.87787652E-01
     181     4148.2002       6.89633012E-01
     182     4150.6899       6.93913698E-01
     183     4153.1802       6.88031435E-01
     184     4155.6699       6.94348812E-01
     185     4158.1602       6.96488023E-01
     186     4160.6499       7.00106502E-01
     187     4163.1401       6.92863524E-01
     188     4165.6299       6.89312577E-01
     189     4168.1201       7.02603102E-01
     190     4170.6099       6.91809535E-01
     191     4173.1001       6.97813511E-01
     192     4175.5898       6.93159461E-01
     193     4178.0801       7.00562835E-01
     194     4180.5698       6.97503865E-01
     195     4183.0601       7.03777134E-01
     196     4185.5498       7.04097152E-01
     197     4188.0400       7.03038752E-01
     198     4190.5298       7.02823758E-01
     199     4193.0200       7.01768279E-01
     200     4195.5098       7.07206368E-01
     201     4198.0000       7.00012922E-01
     202     4200.4902       7.01978862E-01
     203     4202.9800       7.09398329E-01
     204     4205.4702       7.00588942E-01
     205     4207.9600       7.07456231E-01
     206     4210.4502       6.99640870E-01
     207     4212.9399       7.04953551E-01
     208     4215.4302       7.06229389E-01
     209     4217.9199       6.99608862E-01
     210     4220.4102       7.01851964E-01
     211     4222.8999       7.06752658E-01
     212     4225.3901       7.09954143E-01
     213     4227.8799       7.03278720E-01
     214     4230.3701       7.06727624E-01
     215     4232.8599       7.07833529E-01
     216     4235.3501       7.00783372E-01
     217     4237.8398       7.05078125E-01
     218     4240.3301       7.06596017E-01
     219     4242.8198       7.05184340E-01
     220     4245.3101       7.08132923E-01
     221     4247.7998       7.10974216E-01
     222     4250.2900       7.09064007E-01
     223     4252.7798       7.08280981E-01
     224     4255.2700       7.11051106E-01
     225     4257.7598       7.09315479E-01
     226     4260.2500       7.12116480E-01
     227     4262.7402       7.08524466E-01
     228     4265.2300       7.09557772E-01
     229     4267.7202       7.09508061E-01
     230     4270.2100       7.10551202E-01
     231     4272.7002       7.02905059E-01
     232     4275.1899       7.07322240E-01
     233     4277.6802       6.99528456E-01
     234     4280.1699       7.10452557E-01
     235     4282.6602       7.01760173E-01
     236     4285.1499       7.04543233E-01
     237     4287.6401       7.03318715E-01
     238     4290.1299       7.04842269E-01
     239     4292.6201       7.03451157E-01
     240     4295.1099       7.02160478E-01
     241     4297.6001       7.08770037E-01
     242     4300.0898       7.06938148E-01
     243     4302.5801       6.97823703E-01
     244     4305.0698       7.06140816E-01
     245     4307.5601       7.05910563E-01
     246     4310.0498       7.06814170E-01
     247     4312.5400       7.00201571E-01
     248     4315.0298       7.07515121E-01
     249     4317.5200       7.07000136E-01
     250     4320.0098       7.01154053E-01
     251     4322.5000       7.01615810E-01
     252     4324.9902       7.03442097E-01
     253     4327.4800       7.07053304E-01
     254     4329.9702       7.03077674E-01
     255     4332.4600       6.98203862E-01
     256     4334.9502       7.04547286E-01
     257     4337.4399       7.01097846E-01
     258     4339.9302       7.05804110E-01
     259     4342.4199       7.01343417E-01
     260     4344.9102       6.99347734E-01
     261     4347.3999       7.03669608E-01
     262     4349.8901       7.03858554E-01
     263     4352.3799       6.99132204E-01
     264     4354.8701       7.05343664E-01
     265     4357.3599       6.98050141E-01
     266     4359.8501       6.99895859E-01
     267     4362.3398       6.93055391E-01
     268     4364.8301       6.93190455E-01
     269     4367.3198       6.99313879E-01
     270     4369.8101       6.98919058E-01
     271     4372.2998       7.06508160E-01
     272     4374.7900       6.98708057E-01
     273     4377.2798       6.94250107E-01
     274     4379.7700       6.96683645E-01
     275     4382.2598       6.96549118E-01
     276     4384.7500       6.93515956E-01
     277     4387.2402       6.97346926E-01
     278     4389.7300       6.98033571E-01
     279     4392.2202       6.97756052E-01
     280     4394.7100       6.89580560E-01
     281     4397.2002       6.95016503E-01
     282     4399.6899       6.94511175E-01
     283     4402.1802       6.90986693E-01
     284     4404.6699       6.89230561E-01
     285     4407.1602       6.91422820E-01
     286     4409.6499       6.94370389E-01
     287     4412.1401       6.90640330E-01
     288     4414.6299       6.90497756E-01
     289     4417.1201       6.88829124E-01
     290     4419.6099       6.88359320E-01
     291     4422.1001       6.92764521E-01
     292     4424.5898       6.88975692E-01
     293     4427.0801       6.88290358E-01
     294     4429.5698       6.83591127E-01
     295     4432.0601       6.85492516E-01
     296     4434.5498       6.84055805E-01
     297     4437.0400       6.81223035E-01
     298     4439.5298       6.79627061E-01
     299     4442.0200       6.78722620E-01
     300     4444.5098       6.83134317E-01
     301     4447.0000       6.76564157E-01
     302     4449.4902       6.74999356E-01
     303     4451.9800       6.77063882E-01
     304     4454.4702       6.77074969E-01
     305     4456.9600       6.74105406E-01
     306     4459.4502       6.74474597E-01
     307     4461.9399       6.72440588E-01
     308     4464.4302       6.73369169E-01
     309     4466.9199       6.70050979E-01
     310     4469.4102       6.66050017E-01
     311     4471.8999       6.65971637E-01
     312     4474.3901       6.62736416E-01
     313     4476.8799       6.67430639E-01
     314     4479.3701       6.61190152E-01
     315     4481.8599       6.63864255E-01
     316     4484.3501       6.62734270E-01
     317     4486.8398       6.59390330E-01
     318     4489.3301       6.58788323E-01
     319     4491.8198       6.63671374E-01
     320     4494.3101       6.56068802E-01
     321     4496.7998       6.58880949E-01
     322     4499.2900       6.59303129E-01
     323     4501.7798       6.54212356E-01
     324     4504.2700       6.59024656E-01
     325     4506.7598       6.56282544E-01
     326     4509.2500       6.50033116E-01
     327     4511.7402       6.50255561E-01
     328     4514.2300       6.50651038E-01
     329     4516.7202       6.47509456E-01
     330     4519.2100       6.46146476E-01
     331     4521.7002       6.47357643E-01
     332     4524.1899       6.41415358E-01
     333     4526.6802       6.45839274E-01
     334     4529.1699       6.44800782E-01
     335     4531.6602       6.38486028E-01
     336     4534.1499       6.41793489E-01
     337     4536.6401       6.42172575E-01
     338     4539.1299       6.43165350E-01
     339     4541.6201       6.40019119E-01
     340     4544.1099       6.36434972E-01
     341     4546.6001       6.32044971E-01
     342     4549.0898       6.31456375E-01
     343     4551.5801       6.38162374E-01
     344     4554.0698       6.31970644E-01
     345     4556.5601       6.27531648E-01
     346     4559.0498       6.26564145E-01
     347     4561.5400       6.23233318E-01
     348     4564.0298       6.26908898E-01
     349     4566.5200       6.22536063E-01
     350     4569.0098       6.20958328E-01
     351     4571.5000       6.18777275E-01
     352     4573.9902       6.20776892E-01
     353     4576.4800       6.21151149E-01
     354     4578.9702       6.16789579E-01
     355     4581.4600       6.14131093E-01
     356     4583.9502       6.15010262E-01
     357     4586.4399       6.11427069E-01
     358     4588.9302       6.10865235E-01
     359     4591.4199       6.08229101E-01
     360     4593.9102       6.06510878E-01
     361     4596.3999       6.02982581E-01
     362     4598.8901       5.95912516E-01
     363     4601.3799       5.96567869E-01
     364     4603.8701       5.95865846E-01
     365     4606.3599       5.91330945E-01
     366     4608.8501       5.92748165E-01
     367     4611.3398       5.88531017E-01
     368     4613.8301       5.85182309E-01
     369     4616.3198       5.83026826E-01
     370     4618.8101       5.78349233E-01
     371     4621.2998       5.76696396E-01
     372     4623.7900       5.73743939E-01
     373     4626.2798       5.73846221E-01
     374     4628.7700       5.70852399E-01
     375     4631.2598       5.64687610E-01
     376     4633.7500       5.64851463E-01
     377     4636.2402       5.57478845E-01
     378     4638.7300       5.62191844E-01
     379     4641.2202       5.56788504E-01
     380     4643.7100       5.46364546E-01
     381     4646.2002       5.48630059E-01
     382     4648.6899       5.45759797E-01
     383     4651.1802       5.42861938E-01
     384     4653.6699       5.36834836E-01
     385     4656.1602       5.35706222E-01
     386     4658.6499       5.30465961E-01
     387     4661.1401       5.30530930E-01
     388     4663.6299       5.25839090E-01
     389     4666.1201       5.22241473E-01
     390     4668.6099       5.15289485E-01
     391     4671.1001       5.13893902E-01
     392     4673.5898       5.09980440E-01
     393     4676.0801       5.07034123E-01
     394     4678.5698       5.01901865E-01
     395     4681.0601       5.00924826E-01
     396     4683.5498       4.98330563E-01
     397     4686.0400       4.93991494E-01
     398     4688.5298       4.90792453E-01
     399     4691.0200       4.85243976E-01
     400     4693.5098       4.81734037E-01
     401     4696.0000       4.80076849E-01
     402     4698.4902       4.78749871E-01
     403     4700.9800       4.73703951E-01
     404     4703.4702       4.67367768E-01
     405     4705.9600       4.64750230E-01
     406     4708.4502       4.63672757E-01
     407     4710.9399       4.58639741E-01
     408     4713.4302       4.53544736E-01
     409     4715.9199       4.50052083E-01
     410     4718.4102       4.48581517E-01
     411     4720.8999       4.44242835E-01
     412     4723.3901       4.40978229E-01
     413     4725.8799       4.34675455E-01
     414     4728.3701       4.33863580E-01
     415     4730.8599       4.29856628E-01
     416     4733.3501       4.25625622E-01
     417     4735.8398       4.25117373E-01
     418     4738.3301       4.18506861E-01
     419     4740.8198       4.14804101E-01
     420     4743.3101       4.11500931E-01
     421     4745.7998       4.06374097E-01
     422     4748.2900       4.05494094E-01
     423     4750.7798       3.99923235E-01
     424     4753.2700       3.97918373E-01
     425     4755.7598       3.94194365E-01
     426     4758.2500       3.87681812E-01
     427     4760.7402       3.86106104E-01
     428     4763.2300       3.80950391E-01
     429     4765.7202       3.77618849E-01
     430     4768.2100       3.74038070E-01
     431     4770.7002       3.70232493E-01
     432     4773.1899       3.66635263E-01
     433     4775.6802       3.62089813E-01
     434     4778.1699       3.56461346E-01
     435     4780.6602       3.54343146E-01
     436     4783.1499       3.50315243E-01
     437     4785.6401       3.46888304E-01
     438     4788.1299       3.43849957E-01
     439     4790.6201       3.40227544E-01
     440     4793.1099       3.35296094E-01
     441     4795.6001       3.33821625E-01
     442     4798.0898       3.29278767E-01
     443     4800.5801       3.22600722E-01
     444     4803.0698       3.21080685E-01
     445     4805.5601       3.16567540E-01
     446     4808.0498       3.13718051E-01
     447     4810.5400       3.08531433E-01
     448     4813.0298       3.06934178E-01
     449     4815.5200       3.02030981E-01
     450     4818.0098       2.99741566E-01
     451     4820.5000       2.94684261E-01
     452     4822.9902       2.91025639E-01
     453     4825.4800       2.89467812E-01
     454     4827.9702       2.84832835E-01
     455     4830.4600       2.83167720E-01
     456     4832.9502       2.77552515E-01
     457     4835.4399       2.73038805E-01
     458     4837.9302       2.70710170E-01
     459     4840.4199       2.68923670E-01
     460     4842.9102       2.63858020E-01
     461     4845.3999       2.61564910E-01
     462     4847.8901       2.59237707E-01
     463     4850.3799       2.56037235E-01
     464     4852.8701       2.50082791E-01
     465     4855.3599       2.49237955E-01
     466     4857.8501       2.44008720E-01
     467     4860.3398       2.41092980E-01
     468     4862.8301       2.38766700E-01
     469     4865.3198       2.37673730E-01
     470     4867.8101       2.35131562E-01
     471     4870.2998       2.29327112E-01
     472     4872.7900       2.26221830E-01
     473     4875.2798       2.24985912E-01
     474     4877.7700       2.20671043E-01
     475     4880.2598       2.17373312E-01
     476     4882.7500       2.16204360E-01
     477     4885.2402       2.12529764E-01
     478     4887.7300       2.12055326E-01
     479     4890.2202       2.07215726E-01
     480     4892.7100       2.03044429E-01
     481     4895.2002       2.02379018E-01
     482     4897.6899       2.00194359E-01
     483     4900.1802       1.98895782E-01
     484     4902.6699       1.93877965E-01
     485     4905.1602       1.94025069E-01
     486     4907.6499       1.90719560E-01
     487     4910.1401       1.89046860E-01
     488     4912.6299       1.85447484E-01
     489     4915.1201       1.82201236E-01
     490     4917.6099       1.81293637E-01
     491     4920.1001       1.78302780E-01
     492     4922.5898       1.77864671E-01
     493     4925.0801       1.74366564E-01
     494     4927.5698       1.73139513E-01
     495     4930.0601       1.71889961E-01
     496     4932.5498       1.68539613E-01
     497     4935.0400       1.67595550E-01
     498     4937.5298       1.63913012E-01
     499     4940.0200       1.61892310E-01
     500     4942.5098       1.60904229E-01
     501     4945.0000       1.58690304E-01
     502     4947.4902       1.57032803E-01
     503     4949.9800       1.55096740E-01
     504     4952.4702       1.54170886E-01
     505     4954.9600       1.51650310E-01
     506     4957.4502       1.50138259E-01
     507     4959.9399       1.47760972E-01
     508     4962.4302       1.46327764E-01
     509     4964.9199       1.45582527E-01
     510     4967.4102       1.42046481E-01
     511     4969.8999       1.42081201E-01
     512     4972.3901       1.40070498E-01
     513     4974.8799       1.37781590E-01
     514     4977.3701       1.36133164E-01
     515     4979.8599       1.34419769E-01
     516     4982.3501       1.32335991E-01
     517     4984.8398       1.29699036E-01
     518     4987.3301       1.28963321E-01
     519     4989.8198       1.26061469E-01
     520     4992.3101       1.24422297E-01
     521     4994.7998       1.21985465E-01
     522     4997.2900       1.21000059E-01
     523     4999.7798       1.17816709E-01
     524     5002.2700       1.15846083E-01
     525     5004.7598       1.14321001E-01
     526     5007.2500       1.11676306E-01
     527     5009.7402       1.10571757E-01
     528     5012.2300       1.08863123E-01
     529     5014.7202       1.06631219E-01
     530     5017.2100       1.04820453E-01
     531     5019.7002       1.02192037E-01
     532     5022.1899       1.00179940E-01
     533     5024.6802       9.90767181E-02
     534     5027.1699       9.60716307E-02
     535     5029.6602       9.43344533E-02
     536     5032.1499       9.30185467E-02
     537     5034.6401       9.16219726E-02
     538     5037.1299       8.95123407E-02
     539     5039.6201       8.69631916E-02
     540     5042.1099       8.46418291E-02
     541     5044.6001       8.38866532E-02
     542     5047.0898       8.13130140E-02
     543     5049.5801       8.06961209E-02
     544     5052.0698       7.81439692E-02
     545     5054.5601       7.70954043E-02
     546     5057.0498       7.54868686E-02
     547     5059.5400       7.36671239E-02
     548     5062.0298       7.25464225E-02
     549     5064.5200       7.08124340E-02
     550     5067.0098       7.00717345E-02
     551     5069.5000       6.89739585E-02
     552     5071.9902       6.75717890E-02
     553     5074.4800       6.58445954E-02
     554     5076.9702       6.41074628E-02
     555     5079.4600       6.27199039E-02
     556     5081.9502       6.19191155E-02
     557     5084.4399       6.08087890E-02
     558     5086.9302       5.93470857E-02
     559     5089.4199       5.88551462E-02
     560     5091.9102       5.73657081E-02
     561     5094.3999       5.57310991E-02
     562     5096.8901       5.47455698E-02
     563     5099.3799       5.32694794E-02
     564     5101.8701       5.30931987E-02
     565     5104.3599       5.21667898E-02
     566     5106.8501       5.10338917E-02
     567     5109.3398       4.96996045E-02
     568     5111.8301       4.88089919E-02
     569     5114.3198       4.73388843E-02
     570     5116.8101       4.67066094E-02
     571     5119.2998       4.56103608E-02
     572     5121.7900       4.44097668E-02
     573     5124.2798       4.36931215E-02
     574     5126.7700       4.31397371E-02
     575     5129.2598       4.14467119E-02
     576     5131.7500       4.08305898E-02
     577     5134.2402       4.01640460E-02
     578     5136.7300       3.90773267E-02
     579     5139.2202       3.80001552E-02
     580     5141.7100       3.69274169E-02
     581     5144.2002       3.64060141E-02
     582     5146.6899       3.49362865E-02
     583     5149.1802       3.45033444E-02
     584     5151.6699       3.35073099E-02
     585     5154.1602       3.24717388E-02
     586     5156.6499       3.22299004E-02
     587     5159.1401       3.14209126E-02
     588     5161.6299       3.09845284E-02
     589     5164.1201       3.02327722E-02
     590     5166.6099       2.90991552E-02
     591     5169.1001       2.89851110E-02
     592     5171.5898       2.81053744E-02
     593     5174.0801       2.70132981E-02
     594     5176.5698       2.61041485E-02
     595     5179.0601       2.60327235E-02
     596     5181.5498       2.46840138E-02
     597     5184.0400       2.44975276E-02
     598     5186.5298       2.40403265E-02
     599     5189.0200       2.31083184E-02
     600     5191.5098       2.22435221E-02
     601     5194.0000       2.13723965E-02
     602     5196.4902       2.11586356E-02
     603     5198.9800       2.04775799E-02
     604     5201.4702       2.05414277E-02
     605     5203.9600       1.95794180E-02
     606     5206.4502       1.89561993E-02
     607     5208.9399       1.85530782E-02
     608     5211.4302       1.80870891E-02
     609     5213.9199       1.75140314E-02
     610     5216.4102       1.68759972E-02
     611     5218.8999       1.62671190E-02
     612     5221.3901       1.56325195E-02
     613     5223.8799       1.52649507E-02
     614     5226.3701       1.49761559E-02
     615     5228.8599       1.46218194E-02
     616     5231.3501       1.41527429E-02
     617     5233.8398       1.36964684E-02
     618     5236.3301       1.36394640E-02
     619     5238.8198       1.34214442E-02
     620     5241.3101       1.26511520E-02
     621     5243.7998       1.23837749E-02
     622     5246.2900       1.18231280E-02
     623     5248.7798       1.19428970E-02
     624     5251.2700       1.14456508E-02
     625     5253.7598       1.12691792E-02
     626     5256.2500       1.09430961E-02
     627     5258.7402       1.04501499E-02
     628     5261.2300       1.05171986E-02
     629     5263.7202       9.91252810E-03
     630     5266.2100       9.61768627E-03
     631     5268.7002       9.40074958E-03
     632     5271.1899       9.12915915E-03
     633     5273.6802       8.93075392E-03
     634     5276.1699       8.73321667E-03
     635     5278.6602       8.40778090E-03
     636     5281.1499       8.46525468E-03
     637     5283.6401       8.22107121E-03
     638     5286.1299       8.04705266E-03
     639     5288.6201       7.79138785E-03
     640     5291.1099       7.83824269E-03
     641     5293.6001       7.59817660E-03
     642     5296.0898       7.27057364E-03
     643     5298.5801       7.22669810E-03
     644     5301.0698       7.12587545E-03
     645     5303.5601       6.82014786E-03
     646     5306.0498       6.92785112E-03
     647     5308.5400       6.66445913E-03
     648     5311.0298       6.49483409E-03
     649     5313.5200       6.58581825E-03
     650     5316.0098       6.14627125E-03
     651     5318.5000       6.27561752E-03
     652     5320.9902       6.08761609E-03
     653     5323.4800       5.82459522E-03
     654     5325.9702       5.72789460E-03
     655     5328.4600       5.76920528E-03
     656     5330.9502       5.82780549E-03
     657     5333.4399       5.57039771E-03
     658     5335.9302       5.31249866E-03
     659     5338.4199       5.59720723E-03
     660     5340.9102       5.21077123E-03
     661     5343.3999       5.16529009E-03
     662     5345.8901       5.28949779E-03
     663     5348.3799       5.30256284E-03
     664     5350.8701       5.16128261E-03
     665     5353.3599       4.92152292E-03
     666     5355.8501       5.10575669E-03
     667     5358.3398       4.99506202E-03
     668     5360.8301       4.89140488E-03
     669     5363.3198       5.07056993E-03
     670     5365.8101       5.03882859E-03
     671     5368.2998       4.93672956E-03
     672     5370.7900       4.85776551E-03
     673     5373.2798       4.74854279E-03
     674     5375.7700       4.67534363E-03
     675     5378.2598       4.76119388E-03
     676     5380.7500       4.59816447E-03
     677     5383.2402       4.66948096E-03
     678     5385.7300       4.56132740E-03
     679     5388.2202       4.67180833E-03
     680     5390.7100       4.63424623E-03
     681     5393.2002       4.55529010E-03
     682     5395.6899       4.62290365E-03
     683     5398.1802       4.44204174E-03
     684     5400.6699       4.65293508E-03
     685     5403.1602       4.57343925E-03
     686     5405.6499       4.71777376E-03
     687     5408.1401       4.46631294E-03
     688     5410.6299       4.51736944E-03
     689     5413.1201       4.47057839E-03
     690     5415.6099       4.51937038E-03
     691     5418.1001       4.53208154E-03
     692     5420.5898       4.62347735E-03
     693     5423.0801       4.58560977E-03
     694     5425.5698       4.61457623E-03
     695     5428.0601       4.64652199E-03
     696     5430.5498       4.69726138E-03
     697     5433.0400       4.78574494E-03
     698     5435.5298       4.85273637E-03
     699     5438.0200       4.80409991E-03
     700     5440.5098       4.83653974E-03
     701     5443.0000       4.93691955E-03
     702     5445.4902       4.84327087E-03
     703     5447.9800       4.90413466E-03
     704     5450.4702       5.09937899E-03
     705     5452.9600       4.98907641E-03
     706     5455.4502       5.09714382E-03
     707     5457.9399       5.12841437E-03
     708     5460.4302       5.35197929E-03
     709     5462.9199       5.38525078E-03
     710     5465.4102       5.48306294E-03
     711     5467.8999       5.53312153E-03
     712     5470.3901       5.60376421E-03
     713     5472.8799       5.57331182E-03
     714     5475.3701       5.82104176E-03
     715     5477.8599       5.81495184E-03
     716     5480.3501       5.93252201E-03
     717     5482.8398       6.18624687E-03
     718     5485.3301       6.35876320E-03
     719     5487.8198       6.35261368E-03
     720     5490.3101       6.51307637E-03
     721     5492.7998       6.44338131E-03
     722     5495.2900       6.58873469E-03
     723     5497.7798       6.74858410E-03
     724     5500.2700       6.73814397E-03
     725     5502.7598       6.92808395E-03
     726     5505.2500       7.13368924E-03
     727     5507.7402       7.00509828E-03
     728     5510.2300       7.23894499E-03
     729     5512.7202       7.27065466E-03
     730     5515.2100       7.56149739E-03
     731     5517.7002       7.50180054E-03
     732     5520.1899       7.71153159E-03
     733     5522.6802       7.92527013E-03
     734     5525.1699       8.00716411E-03
     735     5527.6602       7.89459236E-03
     736     5530.1499       8.32655840E-03
     737     5532.6401       8.23231600E-03
     738     5535.1299       8.47749971E-03
     739     5537.6201       8.56134109E-03
     740     5540.1099       8.68248567E-03
     741     5542.6001       8.62950087E-03
     742     5545.0898       8.83860607E-03
     743     5547.5801       8.78860336E-03
     744     5550.0698       8.91228206E-03
     745     5552.5601       9.05319490E-03
     746     5555.0498       9.02765244E-03
     747     5557.5400       9.47376527E-03
     748     5560.0298       9.13249329E-03
     749     5562.5200       9.28864256E-03
     750     5565.0098       9.35081020E-03
     751     5567.5000       9.24040005E-03
     752     5569.9902       9.21978615E-03
     753     5572.4800       9.40516498E-03
     754     5574.9702       9.27612744E-03
     755     5577.4600       9.31337010E-03
     756     5579.9502       9.43275169E-03
     757     5582.4399       9.35586169E-03
     758     5584.9302       9.23650898E-03
     759     5587.4199       9.45537630E-03
     760     5589.9102       9.16319527E-03
     761     5592.3999       9.06648673E-03
     762     5594.8901       9.20468941E-03
     763     5597.3799       9.25474055E-03
     764     5599.8701       9.08564311E-03
     765     5602.3599       9.09118541E-03
     766     5604.8501       9.00621992E-03
     767     5607.3398       9.08326544E-03
     768     5609.8301       8.87608714E-03
     769     5612.3198       8.89247749E-03
     770     5614.8101       8.72731209E-03
     771     5617.2998       8.56460631E-03
     772     5619.7900       8.73993151E-03
     773     5622.2798       8.71947780E-03
     774     5624.7700       8.59960727E-03
     775     5627.2598       8.44499655E-03
     776     5629.7500       8.38582031E-03
     777     5632.2402       8.06192495E-03
     778     5634.7300       8.15406721E-03
     779     5637.2202       8.24612193E-03
     780     5639.7100       7.94100203E-03
     781     5642.2002       8.00482184E-03
     782     5644.6899       7.77158141E-03
     783     5647.1802       7.56517891E-03
     784     5649.6699       7.49624427E-03
     785     5652.1602       7.18582328E-03
     786     5654.6499       7.16595771E-03
     787     5657.1401       6.99731661E-03
     788     5659.6299       6.73727458E-03
     789     5662.1201       6.80791726E-03
     790     5664.6099       6.83644786E-03
     791     5667.1001       6.47763535E-03
     792     5669.5898       6.34250604E-03
     793     5672.0801       6.09715376E-03
     794     5674.5698       6.12809043E-03
     795     5677.0601       5.83270565E-03
     796     5679.5498       5.77577949E-03
     797     5682.0400       5.64680900E-03
     798     5684.5298       5.57571882E-03
     799     5687.0200       5.28241880E-03
     800     5689.5098       5.17110433E-03
     801     5692.0000       5.07496204E-03
     802     5694.4902       4.87396680E-03
     803     5696.9800       4.67848871E-03
     804     5699.4702       4.65541007E-03
     805     5701.9600       4.39907378E-03
     806     5704.4502       4.28589992E-03
     807     5706.9399       4.17345669E-03
     808     5709.4302       4.16570064E-03
     809     5711.9199       3.78056895E-03
     810     5714.4102       3.82856652E-03
     811     5716.8999       3.52719170E-03
     812     5719.3901       3.59917106E-03
     813     5721.8799       3.32005881E-03
     814     5724.3701       3.27513786E-03
     815     5726.8599       3.14750290E-03
     816     5729.3501       3.02479882E-03
     817     5731.8398       2.99905520E-03
     818     5734.3301       2.87535554E-03
     819     5736.8198       2.80231889E-03
     820     5739.3101       2.53606914E-03
     821     5741.7998       2.54945178E-03
     822     5744.2900       2.48762267E-03
     823     5746.7798       2.36647623E-03
     824     5749.2700       2.23531434E-03
     825     5751.7598       2.11898773E-03
     826     5754.2500       2.02862849E-03
     827     5756.7402       1.97480619E-03
     828     5759.2300       1.79856271E-03
     829     5761.7202       1.75426272E-03
     830     5764.2100       1.67384534E-03
     831     5766.7002       1.61204813E-03
     832     5769.1899       1.57558022E-03
     833     5771.6802       1.50137150E-03
     834     5774.1699       1.44497806E-03
     835     5776.6602       1.43070752E-03
     836     5779.1499       1.32755423E-03
     837     5781.6401       1.24743395E-03
     838     5784.1299       1.16374937E-03
     839     5786.6201       1.12311170E-03
     840     5789.1099       1.00561196E-03
     841     5791.6001       1.08360359E-03
     842     5794.0898       1.01571425E-03
     843     5796.5801       8.87023169E-04
     844     5799.0698       9.18684760E-04
     845     5801.5601       8.14108877E-04
     846     5804.0498       8.56028579E-04
     847     5806.5400       7.33770838E-04
     848     5809.0298       7.80963572E-04
     849     5811.5200       6.93266047E-04
     850     5814.0098       6.56372868E-04
     851     5816.5000       6.91361143E-04
     852     5818.9902       6.17860700E-04
     853     5821.4800       6.19103550E-04
     854     5823.9702       6.02416694E-04
     855     5826.4600       5.57573279E-04
     856     5828.9502       5.44767536E-04
     857     5831.4399       4.86569887E-04
     858     5833.9302       5.28114906E-04
     859     5836.4199       4.89600527E-04
     860     5838.9102       5.08601021E-04
     861     5841.3999       1.69822713E-03
     862     5843.8901       5.32507780E-04
     863     5846.3799       4.69652994E-04
     864     5848.8701       4.31277178E-04
     865     5851.3599       3.46693356E-04
     866     5853.8501       3.89647204E-04
     867     5856.3398       3.84382613E-04
     868     5858.8301       3.44817527E-04
     869     5861.3198       3.93951661E-04
     870     5863.8101       3.59087368E-04
     871     5866.2998       3.21934000E-04
     872     5868.7900       3.29700881E-04
     873     5871.2798       3.46200395E-04
     874     5873.7700       3.57909041E-04
     875     5876.2598       3.22155218E-04
     876     5878.7500       2.90002441E-04
     877     5881.2402       3.38530110E-04
     878     5883.7300       3.59614496E-04
     879     5886.2202       2.72280595E-04
     880     5888.7100       2.50894896E-04
     881     5891.2002       3.19728104E-04
     882     5893.6899       2.92917481E-04
     883     5896.1802       2.73669488E-04
     884     5898.6699       2.69059703E-04
     885     5901.1602       3.48041387E-04
     886     5903.6499       2.68460950E-04
     887     5906.1401       2.64319300E-04
     888     5908.6299       2.75829603E-04
     889     5911.1201       1.67465027E-04
     890     5913.6099       2.76160717E-04
     891     5916.1001       2.61512818E-04
     892     5918.5898       2.43417977E-04
     893     5921.0801       2.59281136E-04
     894     5923.5698       2.95269158E-04
     895     5926.0601       2.86742987E-04
     896     5928.5498       2.43629125E-04
     897     5931.0400       1.87698708E-04
     898     5933.5298       2.83544301E-04
     899     5936.0200       2.33217288E-04
     900     5938.5098       2.30571255E-04
     901     5941.0000       1.98945665E-04
     902     5943.4902       2.48720899E-04
     903     5945.9800       2.39364832E-04
     904     5948.4702       2.29359284E-04
     905     5950.9600       2.65051262E-04
     906     5953.4502       2.41999485E-04
     907     5955.9399       2.20143309E-04
     908     5958.4302       2.13074134E-04
     909     5960.9199       2.35467305E-04
     910     5963.4102       2.56006868E-04
     911     5965.8999       2.24330652E-04
     912     5968.3901       1.82293428E-04
     913     5970.8799       2.43310060E-04
     914     5973.3701       2.26989883E-04
     915     5975.8599       2.31950718E-04
     916     5978.3501       2.09116726E-04
     917     5980.8398       1.58479612E-04
     918     5983.3301       2.33664323E-04
     919     5985.8198       2.22370189E-04
     920     5988.3101       2.11632170E-04
     921     5990.7998       2.18982634E-04
     922     5993.2900       2.40896770E-04
     923     5995.7798       1.99684175E-04
     924     5998.2700       2.03347532E-04
     925     6000.7598       2.41727714E-04
     926     6003.2500       2.09989026E-04
     927     6005.7402       2.65495968E-04
     928     6008.2300       2.15151216E-04
     929     6010.7202       2.36260064E-04
     930     6013.2100       2.19192923E-04
     931     6015.7002       2.36685417E-04
     932     6018.1899       2.23005714E-04
     933     6020.6802       2.17529843E-04
     934     6023.1699       2.03449978E-04
     935     6025.6602       2.18911387E-04
     936     6028.1499       1.77056878E-04
     937     6030.6401       2.25154654E-04
     938     6033.1299       2.30687074E-04
     939     6035.6201       2.44187628E-04
     940     6038.1099       2.49832083E-04
     941     6040.6001       2.33735802E-04
     942     6043.0898       2.37269604E-04
     943     6045.5801       2.43468297E-04
     944     6048.0698       2.23926429E-04
     945     6050.5601       1.94015942E-04
     946     6053.0498       1.81980402E-04
     947     6055.5400       2.38052584E-04
     948     6058.0298       1.90263541E-04
     949     6060.5200       2.20086789E-04
     950     6063.0098       1.86244986E-04
     951     6065.5000       1.94658409E-04
     952     6067.9902       2.21397931E-04
     953     6070.4800       1.60044408E-04
     954     6072.9702       2.01744871E-04
     955     6075.4600       1.75452296E-04
     956     6077.9502       1.69871346E-04
     957     6080.4399       1.91818079E-04
     958     6082.9302       1.78185699E-04
     959     6085.4199       2.07943405E-04
     960     6087.9102       1.73612687E-04
     961     6090.3999       1.45756349E-04
     962     6092.8901       1.62881770E-04
     963     6095.3799       1.90309976E-04
     964     6097.8701       2.21720664E-04
     965     6100.3599       1.92789099E-04
     966     6102.8501       2.26989185E-04
     967     6105.3398       1.89107232E-04
     968     6107.8301       2.26359465E-04
     969     6110.3198       1.41038268E-04
     970     6112.8101       1.66275771E-04
     971     6115.2998       1.84046279E-04
     972     6117.7900       1.55702321E-04
     973     6120.2798       1.82508928E-04
     974     6122.7700       1.49833417E-04
     975     6125.2598       1.83110184E-04
     976     6127.7500       1.97754169E-04
     977     6130.2402       1.56983588E-04
     978     6132.7300       1.69975363E-04
     979     6135.2202       1.57072645E-04
     980     6137.7100       1.81405834E-04
     981     6140.2002       1.78031434E-04
     982     6142.6899       1.45776765E-04
     983     6145.1802       2.00493014E-04
     984     6147.6699       1.61932898E-04
     985     6150.1602       1.43368161E-04
     986     6152.6499       1.77346185E-04
     987     6155.1401       1.32779853E-04
     988     6157.6299       1.28779720E-04
     989     6160.1201       1.54530848E-04
     990     6162.6099       1.68523213E-04
     991     6165.1001       1.56590206E-04
     992     6167.5898       1.72948799E-04
     993     6170.0801       1.54878435E-04
     994     6172.5698       1.47672021E-04
     995     6175.0601       1.57416624E-04
     996     6177.5498       1.76096873E-04
     997     6180.0400       1.49650703E-04
     998     6182.5298       1.64315948E-04
     999     6185.0200       1.60215117E-04
    1000     6187.5098       1.16502451E-04
    1001     6190.0000       1.83476543E-04
    1002     6192.4902       1.92014981E-04
    1003     6194.9800       1.46221864E-04
    1004     6197.4702       1.69371386E-04
    1005     6199.9600       1.71953681E-04
    1006     6202.4502       1.76497182E-04
    1007     6204.9399       1.31177119E-04
    1008     6207.4302       1.32488698E-04
    1009     6209.9199       1.15671777E-04
    1010     6212.4102       1.24473183E-04
    1011     6214.8999       1.82053351E-04
    1012     6217.3901       1.64942030E-04
    1013     6219.8799       1.61278731E-04
    1014     6222.3701       1.70376617E-04
    1015     6224.8599       1.45066413E-04
    1016     6227.3501       1.33336434E-04
    1017     6229.8398       1.21239907E-04
    1018     6232.3301       1.40369200E-04
    1019     6234.8198       1.38956457E-04
    1020     6237.3101       1.48344596E-04
    1021     6239.7998       1.55297093E-04
    1022     6242.2900       1.08615590E-04
    1023     6244.7798       1.39201074E-04
    1024     6247.2700       1.05340587E-04
    1025     6249.7598       1.43974918E-04
    1026     6252.2500       1.38679650E-04
    1027     6254.7402       9.99845652E-05
    1028     6257.2300       1.10340014E-04
    1029     6259.7202       1.33799520E-04
    1030     6262.2100       1.20480996E-04
    1031     6264.7002       1.26489016E-04
    1032     6267.1899       1.66398837E-04
    1033     6269.6802       1.26026425E-04
    1034     6272.1699       1.28108091E-04
    1035     6274.6602       1.37401483E-04
    1036     6277.1499       8.70593649E-05
    1037     6279.6401       1.23458420E-04
    1038     6282.1299       1.32279747E-04
    1039     6284.6201       1.52248977E-04
    1040     6287.1099       9.55764481E-05
    1041     6289.6001       1.21175377E-04
    1042     6292.0898       9.40801619E-05
    1043     6294.5801       1.35084687E-04
    1044     6297.0698       9.93631184E-05
    1045     6299.5601       1.06753323E-04
    1046     6302.0498       1.16112904E-04
    1047     6304.5400       1.18094154E-04
    1048     6307.0298       9.41562466E-05
    1049     6309.5200       1.23385806E-04
    1050     6312.0103       9.50531976E-05
    1051     6314.5000       1.12451671E-04
    1052     6316.9902       1.10719855E-04
    1053     6319.4800       1.19703269E-04
    1054     6321.9702       9.82813071E-05
    1055     6324.4600       1.20189012E-04
    1056     6326.9502       7.91003622E-05
    1057     6329.4399       1.09175846E-04
    1058     6331.9302       8.25779716E-05
    1059     6334.4199       1.00378486E-04
    1060     6336.9102       1.12311769E-04
    1061     6339.3999       9.09460941E-05
    1062     6341.8901       9.82846468E-05
    1063     6344.3799       9.05413908E-05
    1064     6346.8701       9.24663909E-05
    1065     6349.3599       9.15071578E-05
    1066     6351.8501       1.00460900E-04
    1067     6354.3398       1.15592964E-04
    1068     6356.8301       7.74938089E-05
    1069     6359.3198       1.03211336E-04
    1070     6361.8101       7.83140567E-05
    1071     6364.2998       1.07032938E-04
    1072     6366.7900       1.10544439E-04
    1073     6369.2798       1.13376183E-04
    1074     6371.7700       9.43519408E-05
    1075     6374.2603       9.50304529E-05
    1076     6376.7500       6.04697343E-05
    1077     6379.2402       7.69499165E-05
    1078     6381.7300       6.55010954E-05
    1079     6384.2202       5.24405150E-05
    1080     6386.7100       1.05226485E-04
    1081     6389.2002       9.64550127E-05
    1082     6391.6899       8.87880087E-05
    1083     6394.1802       9.69497050E-05
    1084     6396.6699       1.42582838E-04
    1085     6399.1602       6.33894379E-05
    1086     6401.6499       1.20706623E-04
    1087     6404.1401       7.80597329E-05
    1088     6406.6299       8.17063992E-05
    1089     6409.1201       1.08296161E-04
    1090     6411.6099       1.10576955E-04
    1091     6414.1001       1.06420739E-04
    1092     6416.5898       1.08697677E-04
    1093     6419.0801       9.11267562E-05
    1094     6421.5698       7.66808007E-05
    1095     6424.0601       6.55516051E-05
    1096     6426.5498       6.31347648E-05
    1097     6429.0400       8.58376079E-05
    1098     6431.5298       1.00201978E-04
    1099     6434.0200       1.07195301E-04
    1100     6436.5103       7.15993810E-05
    1101     6439.0000       8.07477918E-05
    1102     6441.4902       8.57376290E-05
    1103     6443.9800       7.10747772E-05
    1104     6446.4702       5.00173337E-05
    1105     6448.9600       1.40555261E-04
    1106     6451.4502       6.62730017E-05
    1107     6453.9399       9.13194963E-05
    1108     6456.4302       8.32240839E-05
    1109     6458.9199       5.28781129E-05
    1110     6461.4102       9.34232303E-05
    1111     6463.8999       8.26343603E-05
    1112     6466.3901       5.52742640E-05
    1113     6468.8799       9.35084827E-05
    1114     6471.3701       5.75273916E-05
    1115     6473.8599       1.01133010E-04
    1116     6476.3501       9.45596112E-05
    1117     6478.8398       5.24655115E-05
    1118     6481.3301       1.08599197E-04
    1119     6483.8198       1.00406731E-04
    1120     6486.3101       5.38822242E-05
    1121     6488.7998       8.35435494E-05
    1122     6491.2900       7.45599682E-05
    1123     6493.7798       7.36342627E-05
    1124     6496.2700       6.38523488E-05
    1125     6498.7603       4.95097447E-05
    1126     6501.2500       8.40527209E-05
    1127     6503.7402       7.38210438E-05
    1128     6506.2300       7.70755214E-05
    1129     6508.7202       5.30173456E-05
    1130     6511.2100       2.92010627E-05
    1131     6513.7002       7.88398393E-05
    1132     6516.1899       4.66173951E-05
    1133     6518.6802       5.98210572E-05
    1134     6521.1699       8.96595084E-05
    1135     6523.6602       8.46973708E-05
    1136     6526.1499       1.12137757E-04
    1137     6528.6401       8.20116402E-05
    1138     6531.1299       1.04300037E-04
    1139     6533.6201       8.66365881E-05
    1140     6536.1099       8.42838199E-05
    1141     6538.6001       8.87312635E-05
    1142     6541.0898       8.58538115E-05
    1143     6543.5801       9.33975098E-05
    1144     6546.0698       8.47443225E-05
    1145     6548.5601       8.15872045E-05
    1146     6551.0498       4.84451448E-05
    1147     6553.5400       8.17807886E-05
    1148     6556.0298       8.03696093E-05
    1149     6558.5200       6.97677315E-05
    1150     6561.0103       7.47787417E-05
    1151     6563.5000       7.45209109E-05
    1152     6565.9902       8.06164026E-05
    1153     6568.4800       7.17092189E-05
    1154     6570.9702       1.07435728E-04
    1155     6573.4600       9.47650406E-05
    1156     6575.9502       5.70146694E-05
    1157     6578.4399       8.56115003E-05
    1158     6580.9302       2.04629414E-05
    1159     6583.4199       8.18603949E-05
    1160     6585.9102       1.11130459E-04
    1161     6588.3999       9.64004139E-05
    1162     6590.8901       6.82464743E-05
    1163     6593.3799       6.62419116E-05
    1164     6595.8701       1.27169042E-04
    1165     6598.3599       6.65547122E-05
    1166     6600.8501       6.92120884E-05
    1167     6603.3398       8.22373695E-05
    1168     6605.8301       6.52452218E-05
    1169     6608.3198       5.90328491E-05
    1170     6610.8101       1.03351369E-04
    1171     6613.2998       9.13366312E-05
    1172     6615.7900       6.82891987E-05
    1173     6618.2798       7.90257473E-05
    1174     6620.7700       6.33832824E-05
    1175     6623.2603       7.89226760E-05
    1176     6625.7500       9.93505237E-05
    1177     6628.2402       8.51642544E-05
    1178     6630.7300       7.29962921E-05
    1179     6633.2202       1.23162172E-04
    1180     6635.7100       9.95019072E-05
    1181     6638.2002       8.95666817E-05
    1182     6640.6899       1.19592311E-04
    1183     6643.1802       8.64883768E-05
    1184     6645.6699       7.38732779E-05
    1185     6648.1602       1.17178090E-04
    1186     6650.6499       1.23863487E-04
    1187     6653.1401       1.11543122E-04
    1188     6655.6299       8.47798219E-05
    1189     6658.1201       9.04509434E-05
    1190     6660.6099       8.98304424E-05
    1191     6663.1001       7.10392633E-05
    1192     6665.5898       9.81226040E-05
    1193     6668.0801       7.55559231E-05
    1194     6670.5698       1.00383797E-04
    1195     6673.0601       7.60501935E-05
    1196     6675.5498       9.75104776E-05
    1197     6678.0400       1.22181169E-04
    1198     6680.5298       7.76203160E-05
    1199     6683.0200       8.19415945E-05
    1200     6685.5103       9.94613147E-05
    1201     6688.0000       1.09589761E-04
    1202     6690.4902       1.07125874E-04
    1203     6692.9800       7.42643169E-05
    1204     6695.4702       1.12723646E-04
    1205     6697.9600       1.45035476E-04
    1206     6700.4502       1.03770988E-04
    1207     6702.9399       1.13080940E-04
    1208     6705.4302       1.34233516E-04
    1209     6707.9199       9.30210517E-05
    1210     6710.4102       1.32362737E-04
    1211     6712.8999       1.21182107E-04
    1212     6715.3901       9.91180277E-05
    1213     6717.8799       9.50118920E-05
    1214     6720.3701       1.13728820E-04
    1215     6722.8599       1.71283376E-04
    1216     6725.3501       1.02722508E-04
    1217     6727.8398       1.28410058E-04
    1218     6730.3301       1.37335373E-04
    1219     6732.8198       9.93518188E-05
    1220     6735.3101       1.45824422E-04
    1221     6737.7998       1.49078202E-04
    1222     6740.2900       1.57751288E-04
    1223     6742.7798       1.46950173E-04
    1224     6745.2700       1.42158067E-04
    1225     6747.7603       1.30809116E-04
    1226     6750.2500       3.47262830E-04
    1227     6752.7402       2.66868650E-04
    1228     6755.2300       1.61731325E-04
    1229     6757.7202       1.26590370E-04
    1230     6760.2100       1.36864750E-04
    1231     6762.7002       1.76566624E-04
    1232     6765.1899       1.92333886E-04
    1233     6767.6802       1.47762490E-04
    1234     6770.1699       1.37352239E-04
    1235     6772.6602       1.66185317E-04
    1236     6775.1499       1.88434293E-04
    1237     6777.6401       1.85850207E-04
    1238     6780.1299       1.86758465E-04
    1239     6782.6201       1.66581100E-04
    1240     6785.1099       2.02374649E-04
    1241     6787.6001       1.78733171E-04
    1242     6790.0898       2.09717778E-04
    1243     6792.5801       2.13671854E-04
    1244     6795.0698       1.62996090E-04
    1245     6797.5601       1.72739194E-04
    1246     6800.0498       1.99764036E-04
    1247     6802.5400       2.24857518E-04
    1248     6805.0298       2.07637946E-04
    1249     6807.5200       2.01040253E-04
    1250     6810.0103       1.96762674E-04
    1251     6812.5000       2.41937014E-04
    1252     6814.9902       2.50474579E-04
    1253     6817.4800       2.19285808E-04
    1254     6819.9702       2.43798349E-04
    1255     6822.4600       2.82909838E-04
    1256     6824.9502       2.18870031E-04
    1257     6827.4399       2.56536441E-04
    1258     6829.9302       2.71871802E-04
    1259     6832.4199       2.86530732E-04
    1260     6834.9102       2.41681468E-04
    1261     6837.3999       2.44880212E-04
    1262     6839.8901       2.60772009E-04
    1263     6842.3799       2.74647260E-04
    1264     6844.8701       2.81471817E-04
    1265     6847.3599       2.67697527E-04
    1266     6849.8501       2.40585330E-04
    1267     6852.3398       2.41966714E-04
    1268     6854.8301       2.68918986E-04
    1269     6857.3198       2.77670275E-04
    1270     6859.8101       2.31596234E-04
    1271     6862.2998       2.50814017E-04
    1272     6864.7900       2.81402317E-04
    1273     6867.2798       2.42862763E-04
    1274     6869.7700       2.90902652E-04
    1275     6872.2603       2.59954599E-04
    1276     6874.7500       2.87062721E-04
    1277     6877.2402       2.96343205E-04
    1278     6879.7300       2.87158473E-04
    1279     6882.2202       2.80447770E-04
    1280     6884.7100       2.99055973E-04
    1281     6887.2002       2.90018914E-04
    1282     6889.6899       3.01278546E-04
    1283     6892.1802       2.86259019E-04
    1284     6894.6699       2.99356761E-04
    1285     6897.1602       2.97342660E-04
    1286     6899.6499       2.84973445E-04
    1287     6902.1401       3.26554291E-04
    1288     6904.6299       2.86201568E-04
    1289     6907.1201       3.14753735E-04
    1290     6909.6099       3.05604830E-04
    1291     6912.1001       3.01426626E-04
    1292     6914.5898       3.14440142E-04
    1293     6917.0801       2.61171750E-04
    1294     6919.5698       2.89630319E-04
    1295     6922.0601       3.30803276E-04
    1296     6924.5498       3.25104338E-04
    1297     6927.0400       2.93950026E-04
    1298     6929.5298       3.02098284E-04
    1299     6932.0200       2.87247065E-04
    1300     6934.5103       3.25454370E-04
    1301     6937.0000       3.08051589E-04
    1302     6939.4902       2.71241675E-04
    1303     6941.9800       2.87675852E-04
    1304     6944.4702       2.97182181E-04
    1305     6946.9600       2.99061532E-04
    1306     6949.4502       2.98060855E-04
    1307     6951.9399       2.97160121E-04
    1308     6954.4302       2.90132652E-04
    1309     6956.9199       3.08351417E-04
    1310     6959.4102       2.82953319E-04
    1311     6961.8999       2.83525093E-04
    1312     6964.3901       2.87251722E-04
    1313     6966.8799       2.75772676E-04
    1314     6969.3701       2.86553637E-04
    1315     6971.8599       2.56338855E-04
    1316     6974.3501       2.79022031E-04
    1317     6976.8398       2.65444221E-04
    1318     6979.3301       3.01836000E-04
    1319     6981.8198       2.91390112E-04
    1320     6984.3101       2.65647017E-04
    1321     6986.7998       2.83675094E-04
    1322     6989.2900       2.74215243E-04
    1323     6991.7798       2.71347148E-04
    1324     6994.2700       2.24314572E-04
    1325     6996.7603       2.55579333E-04
    1326     6999.2500       2.52854312E-04
    1327     7001.7402       2.48153287E-04
    1328     7004.2300       2.41175789E-04
    1329     7006.7202       2.54801242E-04
    1330     7009.2100       2.47784308E-04
    1331     7011.7002       2.37880013E-04
    1332     7014.1899       2.44415074E-04
    1333     7016.6802       2.54073500E-04
    1334     7019.1699       2.46276933E-04
    1335     7021.6602       2.54533312E-04
    1336     7024.1499       2.22108414E-04
    1337     7026.6401       2.28361168E-04
    1338     7029.1299       2.44786177E-04
    1339     7031.6201       2.45656498E-04
    1340     7034.1099       2.09479258E-04
    1341     7036.6001       2.07824254E-04
    1342     7039.0898       2.04897617E-04
    1343     7041.5801       2.26288917E-04
    1344     7044.0698       1.88426959E-04
    1345     7046.5601       2.19464040E-04
    1346     7049.0498       2.24669697E-04
    1347     7051.5400       2.09030724E-04
    1348     7054.0298       2.07235295E-04
    1349     7056.5200       2.28350749E-04
    1350     7059.0103       2.17738576E-04
    1351     7061.5000       2.17736175E-04
    1352     7063.9902       1.90571416E-04
    1353     7066.4800       2.14044543E-04
    1354     7068.9702       1.61988923E-04
    1355     7071.4600       2.26665215E-04
    1356     7073.9502       2.09878082E-04
    1357     7076.4399       2.01183269E-04
    1358     7078.9302       1.97695379E-04
    1359     7081.4199       1.74525398E-04
    1360     7083.9102       1.71107124E-04
    1361     7086.3999       1.73007851E-04
    1362     7088.8901       1.75479101E-04
    1363     7091.3799       1.80835457E-04
    1364     7093.8701       1.79928378E-04
    1365     7096.3599       1.63703429E-04
    1366     7098.8501       1.57948234E-04
    1367     7101.3398       1.48342922E-04
    1368     7103.8301       1.50793014E-04
    1369     7106.3198       1.57153088E-04
    1370     7108.8101       1.69110339E-04
    1371     7111.2998       1.69348510E-04
    1372     7113.7900       1.65744015E-04
    1373     7116.2798       1.25158549E-04
    1374     7118.7700       1.41609999E-04
    1375     7121.2603       1.65627280E-04
    1376     7123.7500       1.73591819E-04
    1377     7126.2402       1.35860057E-04
    1378     7128.7300       1.44400808E-04
    1379     7131.2202       1.47193816E-04
    1380     7133.7100       1.31925524E-04
    1381     7136.2002       1.22963393E-04
    1382     7138.6899       1.55355519E-04
    1383     7141.1802       1.37476629E-04
    1384     7143.6699       1.40976961E-04
    1385     7146.1602       1.23579695E-04
    1386     7148.6499       1.29623193E-04
    1387     7151.1401       1.51791566E-04
    1388     7153.6299       1.39052194E-04
    1389     7156.1201       1.65602498E-04
    1390     7158.6099       1.21044191E-04
    1391     7161.1001       1.39541400E-04
    1392     7163.5898       1.41327051E-04
    1393     7166.0801       1.20575707E-04
    1394     7168.5698       1.33769849E-04
    1395     7171.0601       1.02937513E-04
    1396     7173.5498       1.04477964E-04
    1397     7176.0400       1.15750721E-04
    1398     7178.5298       1.38040603E-04
    1399     7181.0200       1.43914382E-04
    1400     7183.5103       9.60395409E-05
    1401     7186.0000       1.20212164E-04
    1402     7188.4902       1.18962664E-04
    1403     7190.9800       1.22879457E-04
    1404     7193.4702       1.20662327E-04
    1405     7195.9600       1.13503564E-04
    1406     7198.4502       1.29507724E-04
    1407     7200.9399       9.24880151E-05
    1408     7203.4302       9.14825359E-05
    1409     7205.9199       9.41918406E-05
    1410     7208.4102       1.04194543E-04
    1411     7210.8999       9.88061220E-05
    1412     7213.3901       9.57130833E-05
    1413     7215.8799       8.96142883E-05
    1414     7218.3701       9.93690410E-05
    1415     7220.8599       1.11718306E-04
    1416     7223.3501       1.15808740E-04
    1417     7225.8398       7.02108300E-05
    1418     7228.3301       9.92763089E-05
    1419     7230.8198       9.56520744E-05
    1420     7233.3101       9.39491001E-05
    1421     7235.7998       1.15455929E-04
    1422     7238.2900       9.79913893E-05
    1423     7240.7798       1.17922464E-04
    1424     7243.2700       8.42574082E-05
    1425     7245.7603       6.99768934E-05
    1426     7248.2500       1.03251092E-04
    1427     7250.7402       1.10286361E-04
    1428     7253.2300       9.09559458E-05
    1429     7255.7202       7.94675725E-05
    1430     7258.2100       1.06797095E-04
    1431     7260.7002       7.66888406E-05
    1432     7263.1899       8.97337159E-05
    1433     7265.6802       8.04887386E-05
    1434     7268.1699       8.76676713E-05
    1435     7270.6602       9.10054878E-05
    1436     7273.1499       9.21331666E-05
    1437     7275.6401       7.82141724E-05
    1438     7278.1299       1.07874323E-04
    1439     7280.6201       6.87284337E-05
    1440     7283.1099       7.36746370E-05
    1441     7285.6001       7.53981440E-05
    1442     7288.0898       7.21965553E-05
    1443     7290.5801       5.62932400E-05
    1444     7293.0698       7.04037084E-05
    1445     7295.5601       1.00555946E-04
    1446     7298.0498       6.86842395E-05
    1447     7300.5400       8.05527234E-05
    1448     7303.0298       7.22330224E-05
    1449     7305.5200       1.12290203E-04
    1450     7308.0103       6.14928867E-05
    1451     7310.5000       7.96567329E-05
    1452     7312.9902       5.74925289E-05
    1453     7315.4800       5.52587444E-05
    1454     7317.9702       7.82531133E-05
    1455     7320.4600       6.70897134E-05
    1456     7322.9502       6.66278211E-05
    1457     7325.4399       7.38212839E-05
    1458     7327.9302       5.66390008E-05
    1459     7330.4199       6.46215049E-05
    1460     7332.9102       6.79769000E-05
    1461     7335.3999       8.28776174E-05
    1462     7337.8901       6.75726405E-05
    1463     7340.3799       5.71705496E-05
    1464     7342.8701       6.19431448E-05
    1465     7345.3599       5.72947247E-05
    1466     7347.8501       6.00248422E-05
    1467     7350.3398       5.61860361E-05
    1468     7352.8301       6.84842598E-05
    1469     7355.3198       6.78782962E-05
    1470     7357.8101       5.65843657E-05
    1471     7360.2998       6.52640010E-05
    1472     7362.7900       4.78315560E-05
    1473     7365.2798       5.77075625E-05
    1474     7367.7700       5.50033219E-05
    1475     7370.2603       4.42233286E-05
    1476     7372.7500       6.58503122E-05
    1477     7375.2402       6.64774852E-05
    1478     7377.7300       3.71584902E-05
    1479     7380.2202       6.13336306E-05
    1480     7382.7100       5.13647137E-05
    1481     7385.2002       3.20427243E-05
    1482     7387.6899       5.09826459E-05
    1483     7390.1802       7.21966935E-05
    1484     7392.6699       4.54109068E-05
    1485     7395.1602       5.91491626E-05
    1486     7397.6499       4.56538146E-05
    1487     7400.1401       2.72812176E-05
    1488     7402.6299       6.32548617E-05
    1489     7405.1201       6.36032637E-05
    1490     7407.6099       5.65962109E-05
    1491     7410.1001       6.36080222E-05
    1492     7412.5898       5.17047702E-05
    1493     7415.0801       5.28245437E-05
    1494     7417.5698       6.89061271E-05
    1495     7420.0601       6.38279162E-05
    1496     7422.5498       5.44387221E-05
    1497     7425.0400       4.95988643E-05
    1498     7427.5298       6.55533513E-05
    1499     7430.0200       5.07485092E-05
    1500     7432.5103       4.04502243E-05
    1501     7435.0000       5.17693188E-05
    1502     7437.4902       6.02943619E-05
    1503     7439.9800       5.65207265E-05
    1504     7442.4702       5.56182058E-05
    1505     7444.9600       6.29028291E-05
    1506     7447.4502       4.47905586E-05
    1507     7449.9399       4.43878234E-05
    1508     7452.4302       5.95148595E-05
    1509     7454.9199       4.43433855E-05
    1510     7457.4102       4.43280769E-05
    1511     7459.8999       4.47919228E-05
    1512     7462.3901       5.17253284E-05
    1513     7464.8799       5.78773543E-05
    1514     7467.3701       3.79276971E-05
    1515     7469.8599       5.94609519E-05
    1516     7472.3501       4.76501809E-05
    1517     7474.8398       5.09762503E-05
    1518     7477.3301       5.12872830E-05
    1519     7479.8198       8.27376571E-05
    1520     7482.3101       7.19364180E-05
    1521     7484.7998       3.92656220E-05
    1522     7487.2900       4.06433101E-05
    1523     7489.7798       5.50765253E-05
    1524     7492.2700       5.91002827E-05
    1525     7494.7603       2.67198066E-05
    1526     7497.2500       5.87272480E-05
    1527     7499.7402       5.61177949E-05
    1528     7502.2300       5.72037243E-05
    1529     7504.7202       5.14344756E-05
    1530     7507.2100       5.96781865E-05
    1531     7509.7002       4.55007321E-05
    1532     7512.1899       4.67682039E-05
    1533     7514.6802       3.37817582E-05
    1534     7517.1699       7.03131809E-05
    1535     7519.6602       6.34856988E-05
    1536     7522.1499       3.98620941E-05
    1537     7524.6401       4.45137412E-05
    1538     7527.1299       5.01105169E-05
    1539     7529.6201       7.05199855E-05
    1540     7532.1099       2.75172861E-05
    1541     7534.6001       4.65404082E-05
    1542     7537.0898       3.93849659E-05
    1543     7539.5801       7.38484450E-05
    1544     7542.0698       6.30833092E-05
    1545     7544.5601       4.77604517E-05
    1546     7547.0498       6.76443815E-05
    1547     7549.5400       6.68369903E-05
    1548     7552.0298       3.04900004E-05
    1549     7554.5200       4.80252420E-05
    1550     7557.0103       5.57343810E-05
    1551     7559.5000       7.04258127E-05
    1552     7561.9902       5.08375306E-05
    1553     7564.4800       5.88201874E-05
    1554     7566.9702       5.92220094E-05
    1555     7569.4600       6.81363308E-05
    1556     7571.9502       7.48889142E-05
    1557     7574.4399       6.23951928E-05
    1558     7576.9302       6.51759765E-05
    1559     7579.4199       4.76375026E-05
    1560     7581.9102       3.63813488E-05
    1561     7584.3999       5.04901072E-05
    1562     7586.8901       5.46145384E-05
    1563     7589.3799       4.27099658E-05
    1564     7591.8701       4.27038212E-05
    1565     7594.3599       5.24408315E-05
    1566     7596.8501       5.88742259E-05
    1567     7599.3398       4.11733781E-05
    1568     7601.8301       5.20651156E-05
    1569     7604.3198       3.29512914E-05
    1570     7606.8101       4.08682390E-05
    1571     7609.2998       5.55340157E-05
    1572     7611.7900       7.70860934E-05
    1573     7614.2798       7.19274540E-05
    1574     7616.7700       6.24635431E-05
    1575     7619.2603       4.55608679E-05
    1576     7621.7500       4.68861399E-05
    1577     7624.2402       5.13223422E-05
    1578     7626.7300       4.68337239E-05
    1579     7629.2202       5.84976005E-05
    1580     7631.7100       6.00239946E-05
    1581     7634.2002       8.13146762E-05
    1582     7636.6899       6.06827234E-05
    1583     7639.1802       4.32508241E-05
    1584     7641.6699       5.81316199E-05
    1585     7644.1602       6.08813680E-05
    1586     7646.6499       4.42433957E-05
    1587     7649.1401       3.57187855E-05
    1588     7651.6299       6.20586798E-05
    1589     7654.1201       5.45321527E-05
    1590     7656.6099       2.55168816E-05
    1591     7659.1001       5.73189427E-05
    1592     7661.5898       4.86492681E-05
    1593     7664.0801       6.13236989E-05
    1594     7666.5698       5.82736357E-05
    1595     7669.0601       5.84088411E-05
    1596     7671.5498       5.62533751E-05
    1597     7674.0400       6.98690565E-05
    1598     7676.5298       3.02627323E-05
    1599     7679.0200       8.65073162E-05
    1600     7681.5103       8.19110865E-05
    1601     7684.0000       7.05825005E-05
    1602     7686.4902       4.31310291E-05
    1603     7688.9800       2.75987695E-05
    1604     7691.4702       8.37719417E-05
    1605     7693.9600       7.32236804E-05
    1606     7696.4502       8.58804269E-05
    1607     7698.9399       6.42553277E-05
    1608     7701.4302       5.68973446E-05
    1609     7703.9199       6.33237432E-05
    1610     7706.4102       8.97062055E-05
    1611     7708.8999       5.48759745E-05
    1612     7711.3901       6.47059132E-05
    1613     7713.8799       4.39665673E-05
    1614     7716.3701       3.77705146E-05
    1615     7718.8599       6.35121760E-05
    1616     7721.3501       6.84902916E-05
    1617     7723.8398       8.56772240E-05
    1618     7726.3301       6.64819745E-05
    1619     7728.8198       6.78293363E-05
    1620     7731.3101       7.30069005E-05
    1621     7733.7998       7.54530847E-05
    1622     7736.2900       6.51974260E-05
    1623     7738.7798       9.21933824E-05
    1624     7741.2700       8.42915906E-05
    1625     7743.7603       7.64386714E-05
    1626     7746.2500       8.85720365E-05
    1627     7748.7402       6.07236725E-05
    1628     7751.2300       5.81922795E-05
    1629     7753.7202       5.09079582E-05
    1630     7756.2100       8.66351038E-05
    1631     7758.7002       8.02551222E-05
    1632     7761.1899       7.44284334E-05
    1633     7763.6802       7.19929085E-05
    1634     7766.1699       4.63788892E-05
    1635     7768.6602       7.49305109E-05
    1636     7771.1499       8.63271125E-05
    1637     7773.6401       7.21280376E-05
    1638     7776.1299       8.14058949E-05
    1639     7778.6201       5.49202232E-05
    1640     7781.1099       8.27736658E-05
    1641     7783.6001       9.51676775E-05
    1642     7786.0898       1.03482555E-04
    1643     7788.5801       8.12508806E-05
    1644     7791.0698       7.18417941E-05
    1645     7793.5601       9.91456327E-05
    1646     7796.0498       1.05287938E-04
    1647     7798.5400       8.94638943E-05
    1648     7801.0298       9.03233013E-05
    1649     7803.5200       6.61302620E-05
    1650     7806.0103       1.19121774E-04
    1651     7808.5000       1.26556930E-04
    1652     7810.9902       8.47126284E-05
    1653     7813.4800       9.20267266E-05
    1654     7815.9702       1.03408427E-04
    1655     7818.4600       8.73638492E-05
    1656     7820.9502       9.07069334E-05
    1657     7823.4399       1.04703722E-04
    1658     7825.9302       6.92674803E-05
    1659     7828.4199       8.73086683E-05
    1660     7830.9102       9.31807299E-05
    1661     7833.3999       1.00615805E-04
    1662     7835.8901       8.81375745E-05
    1663     7838.3799       1.07547385E-04
    1664     7840.8701       9.30715032E-05
    1665     7843.3599       1.37657538E-04
    1666     7845.8501       1.07174565E-04
    1667     7848.3398       9.96601157E-05
    1668     7850.8301       9.26632420E-05
    1669     7853.3198       1.15655828E-04
    1670     7855.8101       9.99405529E-05
    1671     7858.2998       9.35673525E-05
    1672     7860.7900       1.31376844E-04
    1673     7863.2798       1.19807606E-04
    1674     7865.7700       1.07109343E-04
    1675     7868.2603       1.07262866E-04
    1676     7870.7500       1.15126124E-04
    1677     7873.2402       1.47489176E-04
    1678     7875.7300       9.89246109E-05
    1679     7878.2202       1.28292333E-04
    1680     7880.7100       1.24990649E-04
    1681     7883.2002       1.13782888E-04
    1682     7885.6899       1.16041701E-04
    1683     7888.1802       1.36014423E-04
    1684     7890.6699       1.50057691E-04
    1685     7893.1602       9.92341229E-05
    1686     7895.6499       8.93564647E-05
    1687     7898.1401       1.49952000E-04
    1688     7900.6299       1.38067044E-04
    1689     7903.1201       1.23368314E-04
    1690     7905.6099       1.47733343E-04
    1691     7908.1001       1.35620634E-04
    1692     7910.5898       1.21828547E-04
    1693     7913.0801       1.51552871E-04
    1694     7915.5698       1.48867883E-04
    1695     7918.0601       1.63789606E-04
    1696     7920.5498       1.70160172E-04
    1697     7923.0400       1.63817298E-04
    1698     7925.5298       1.49542000E-04
    1699     7928.0200       1.66005542E-04
    1700     7930.5103       1.82293792E-04
    1701     7933.0000       1.33246227E-04
    1702     7935.4902       1.15741852E-04
    1703     7937.9800       1.35388167E-04
    1704     7940.4702       1.52537599E-04
    1705     7942.9600       1.63131481E-04
    1706     7945.4502       1.84076096E-04
    1707     7947.9399       1.32005051E-04
    1708     7950.4302       1.76553440E-04
    1709     7952.9199       1.56489608E-04
    1710     7955.4102       1.63576580E-04
    1711     7957.8999       1.60057432E-04
    1712     7960.3901       1.52141758E-04
    1713     7962.8799       1.75280715E-04
    1714     7965.3701       2.01374496E-04
    1715     7967.8599       1.61281234E-04
    1716     7970.3501       1.67946011E-04
    1717     7972.8398       2.03681266E-04
    1718     7975.3301       1.87362457E-04
    1719     7977.8198       1.83787619E-04
    1720     7980.3101       1.82057061E-04
    1721     7982.7998       1.96668319E-04
    1722     7985.2900       1.80663905E-04
    1723     7987.7798       2.21090755E-04
    1724     7990.2700       2.30172460E-04
    1725     7992.7603       2.05452816E-04
    1726     7995.2500       2.13057167E-04
    1727     7997.7402       2.03770993E-04
    1728     8000.2300       1.88595513E-04
    1729     8002.7202       2.03379430E-04
    1730     8005.2100       2.32700317E-04
    1731     8007.7002       2.33356433E-04
    1732     8010.1899       2.09539838E-04
    1733     8012.6802       2.33849074E-04
    1734     8015.1699       2.04848155E-04
    1735     8017.6602       2.16639251E-04
    1736     8020.1499       2.30724778E-04
    1737     8022.6401       2.19019581E-04
    1738     8025.1299       2.40668669E-04
    1739     8027.6201       2.42593364E-04
    1740     8030.1099       2.37753964E-04
    1741     8032.6001       2.61969195E-04
    1742     8035.0898       2.33030587E-04
    1743     8037.5801       2.45978328E-04
    1744     8040.0698       2.57545034E-04
    1745     8042.5601       2.54964863E-04
    1746     8045.0498       2.72040896E-04
    1747     8047.5400       2.62865186E-04
    1748     8050.0298       2.26797216E-04
    1749     8052.5200       2.75834784E-04
    1750     8055.0103       2.89932796E-04
    1751     8057.5000       3.23974207E-04
    1752     8059.9902       2.38363893E-04
    1753     8062.4800       2.78534950E-04
    1754     8064.9702       2.81943823E-04
    1755     8067.4600       2.74164428E-04
    1756     8069.9502       2.82215129E-04
    1757     8072.4399       2.72242090E-04
    1758     8074.9302       2.83622037E-04
    1759     8077.4199       2.93341349E-04
    1760     8079.9102       2.91533885E-04
    1761     8082.3999       2.85748945E-04
    1762     8084.8901       3.06333415E-04
    1763     8087.3799       2.72641046E-04
    1764     8089.8701       3.17595957E-04
    1765     8092.3599       2.58600630E-04
    1766     8094.8501       3.28745460E-04
    1767     8097.3398       2.98402854E-04
    1768     8099.8301       2.94566213E-04
    1769     8102.3198       3.43409076E-04
    1770     8104.8101       3.01836350E-04
    1771     8107.2998       3.35914170E-04
    1772     8109.7900       3.34112730E-04
    1773     8112.2798       3.44556058E-04
    1774     8114.7700       3.31411837E-04
    1775     8117.2603       3.01662862E-04
    1776     8119.7500       3.44036322E-04
    1777     8122.2402       3.46290064E-04
    1778     8124.7300       3.99999961E-04
    1779     8127.2202       3.58439022E-04
    1780     8129.7100       3.85206426E-04
    1781     8132.2002       3.30051174E-04
    1782     8134.6899       3.57801269E-04
    1783     8137.1802       3.25958361E-04
    1784     8139.6699       3.44564731E-04
    1785     8142.1602       3.54785472E-04
    1786     8144.6499       3.54790012E-04
    1787     8147.1401       3.96162737E-04
    1788     8149.6299       4.18023585E-04
    1789     8152.1201       3.82857863E-04
    1790     8154.6099       3.61876766E-04
    1791     8157.1001       3.94552946E-04
    1792     8159.5898       3.77089280E-04
    1793     8162.0801       4.36761475E-04
    1794     8164.5698       3.95997748E-04
    1795     8167.0601       3.97591852E-04
    1796     8169.5498       3.75221076E-04
    1797     8172.0400       3.78853903E-04
    1798     8174.5298       3.93359922E-04
    1799     8177.0200       4.32504981E-04
    1800     8179.5103       4.39036958E-04
    1801     8182.0000       4.24441765E-04
    1802     8184.4902       3.83564155E-04
    1803     8186.9800       4.15404269E-04
    1804     8189.4702       4.42657358E-04
    1805     8191.9600       4.22087789E-04
    1806     8194.4502       4.04590101E-04
    1807     8196.9404       4.10486478E-04
    1808     8199.4297       4.36698494E-04
    1809     8201.9199       4.25423554E-04
    1810     8204.4102       4.22619109E-04
    1811     8206.9004       4.55621222E-04
    1812     8209.3896       4.32115979E-04
    1813     8211.8799       4.37670271E-04
    1814     8214.3701       4.64034907E-04
    1815     8216.8604       4.90592502E-04
    1816     8219.3496       4.55720350E-04
    1817     8221.8398       4.54209599E-04
    1818     8224.3301       4.41519398E-04
    1819     8226.8203       4.09217086E-04
    1820     8229.3096       4.80571995E-04
    1821     8231.7998       4.76556888E-04
    1822     8234.2900       4.53366898E-04
    1823     8236.7803       4.30562010E-04
    1824     8239.2695       4.41897253E-04
    1825     8241.7598       4.66774567E-04
    1826     8244.2500       4.50824446E-04
    1827     8246.7402       4.85522294E-04
    1828     8249.2305       4.63787088E-04
    1829     8251.7197       4.80638118E-04
    1830     8254.2100       5.04534401E-04
    1831     8256.7002       4.59732488E-04
    1832     8259.1904       5.11991791E-04
    1833     8261.6797       5.12603961E-04
    1834     8264.1699       5.47579839E-04
    1835     8266.6602       5.26411925E-04
    1836     8269.1504       5.26528340E-04
    1837     8271.6396       4.98939771E-04
    1838     8274.1299       5.35960135E-04
    1839     8276.6201       4.79731942E-04
    1840     8279.1104       4.98981331E-04
    1841     8281.5996       5.27313969E-04
    1842     8284.0898       5.41505171E-04
    1843     8286.5801       5.58436499E-04
    1844     8289.0703       5.05350530E-04
    1845     8291.5596       5.22773713E-04
    1846     8294.0498       5.56364248E-04
    1847     8296.5400       5.41083573E-04
    1848     8299.0303       5.25393407E-04
    1849     8301.5195       5.38625405E-04
    1850     8304.0098       5.40545559E-04
    1851     8306.5000       5.10393060E-04
    1852     8308.9902       5.30661200E-04
    1853     8311.4805       5.46663534E-04
    1854     8313.9697       5.49881370E-04
    1855     8316.4600       5.36737556E-04
    1856     8318.9502       5.36471489E-04
    1857     8321.4404       5.81169268E-04
    1858     8323.9297       5.94718906E-04
    1859     8326.4199       5.95525897E-04
    1860     8328.9102       5.87257440E-04
    1861     8331.4004       5.57668973E-04
    1862     8333.8896       5.83167945E-04
    1863     8336.3799       5.98019280E-04
    1864     8338.8701       6.05149427E-04
    1865     8341.3604       5.19561640E-04
    1866     8343.8496       6.06022310E-04
    1867     8346.3398       5.72441495E-04
    1868     8348.8301       6.31037750E-04
    1869     8351.3203       6.05682377E-04
    1870     8353.8096       6.33537304E-04
    1871     8356.2998       6.04423287E-04
    1872     8358.7900       5.52494312E-04
    1873     8361.2803       5.99431223E-04
    1874     8363.7695       6.48018846E-04
    1875     8366.2598       6.15869649E-04
    1876     8368.7500       6.33159536E-04
    1877     8371.2402       6.70324313E-04
    1878     8373.7305       6.57727011E-04
    1879     8376.2197       6.03536435E-04
    1880     8378.7100       6.57562516E-04
    1881     8381.2002       5.86383860E-04
    1882     8383.6904       6.43495528E-04
    1883     8386.1797       6.02059532E-04
    1884     8388.6699       6.11469150E-04
    1885     8391.1602       5.83331333E-04
    1886     8393.6504       6.27428701E-04
    1887     8396.1396       6.40541548E-04
    1888     8398.6299       6.59840589E-04
    1889     8401.1201       6.01686421E-04
    1890     8403.6104       6.40029204E-04
    1891     8406.0996       6.32158888E-04
    1892     8408.5898       6.28452341E-04
    1893     8411.0801       6.13021606E-04
    1894     8413.5703       6.29463233E-04
    1895     8416.0596       6.50372240E-04
    1896     8418.5498       6.30934141E-04
    1897     8421.0400       6.12634234E-04
    1898     8423.5303       6.23133150E-04
    1899     8426.0195       6.35554898E-04
    1900     8428.5098       5.84940834E-04
    1901     8431.0000       6.58418867E-04
    1902     8433.4902       6.29306829E-04
    1903     8435.9805       6.55306620E-04
    1904     8438.4697       7.01975659E-04
    1905     8440.9600       6.18653547E-04
    1906     8443.4502       5.85452479E-04
    1907     8445.9404       6.99669123E-04
    1908     8448.4297       6.45979831E-04
    1909     8450.9199       6.51859445E-04
    1910     8453.4102       6.38641999E-04
    1911     8455.9004       6.58350589E-04
    1912     8458.3896       6.71625021E-04
    1913     8460.8799       6.25091488E-04
    1914     8463.3701       6.03783061E-04
    1915     8465.8604       6.67804212E-04
    1916     8468.3496       6.31054747E-04
    1917     8470.8398       6.53846771E-04
    1918     8473.3301       6.45754277E-04
    1919     8475.8203       6.34153897E-04
    1920     8478.3096       6.25160988E-04
    1921     8480.7998       7.02162506E-04
    1922     8483.2900       6.63926359E-04
    1923     8485.7803       6.39711972E-04
    1924     8488.2695       6.65748550E-04
    1925     8490.7598       6.04148605E-04
    1926     8493.2500       6.20301347E-04
    1927     8495.7402       6.26744353E-04
    1928     8498.2305       6.47887995E-04
    1929     8500.7197       6.52144547E-04
    1930     8503.2100       7.05591636E-04
    1931     8505.7002       6.65248837E-04
    1932     8508.1904       6.52176037E-04
    1933     8510.6797       6.40703656E-04
    1934     8513.1699       6.70444686E-04
    1935     8515.6602       6.54849980E-04
    1936     8518.1504       6.55610580E-04
    1937     8520.6396       5.98078070E-04
    1938     8523.1299       6.34098949E-04
    1939     8525.6201       6.62922917E-04
    1940     8528.1104       6.21200772E-04
    1941     8530.5996       6.10713614E-04
    1942     8533.0898       6.42774161E-04
    1943     8535.5801       6.83319056E-04
    1944     8538.0703       6.05204492E-04
    1945     8540.5596       6.21922256E-04
    1946     8543.0498       6.54467090E-04
    1947     8545.5400       6.90293382E-04
    1948     8548.0303       6.05704496E-04
    1949     8550.5195       6.54660515E-04
    1950     8553.0098       6.47739857E-04
    1951     8555.5000       6.41122228E-04
    1952     8557.9902       6.55668671E-04
    1953     8560.4805       6.18962164E-04
    1954     8562.9697       6.47024892E-04
    1955     8565.4600       6.94770133E-04
    1956     8567.9502       6.52941992E-04
    1957     8570.4404       6.58273173E-04
    1958     8572.9297       6.55363081E-04
    1959     8575.4199       5.99069637E-04
    1960     8577.9102       6.89613866E-04
    1961     8580.4004       6.24815992E-04
    1962     8582.8896       6.10467221E-04
    1963     8585.3799       6.92087691E-04
    1964     8587.8701       6.19320141E-04
    1965     8590.3604       6.61960337E-04
    1966     8592.8496       6.39295904E-04
    1967     8595.3398       6.48613262E-04
    1968     8597.8301       6.75853051E-04
    1969     8600.3203       5.86246839E-04
    1970     8602.8096       7.12254667E-04
    1971     8605.2998       6.85844629E-04
    1972     8607.7900       6.26521884E-04
    1973     8610.2803       6.37446356E-04
    1974     8612.7695       7.00689619E-04
    1975     8615.2598       6.41680672E-04
    1976     8617.7500       7.06799910E-04
    1977     8620.2402       5.94954879E-04
    1978     8622.7305       6.75228541E-04
    1979     8625.2197       6.73075439E-04
    1980     8627.7100       6.76549389E-04
    1981     8630.2002       7.05071725E-04
    1982     8632.6904       6.67346991E-04
    1983     8635.1797       6.76943047E-04
    1984     8637.6699       6.72643131E-04
    1985     8640.1602       6.51841226E-04
    1986     8642.6504       6.62021164E-04
    1987     8645.1396       6.55234384E-04
    1988     8647.6299       6.74462935E-04
    1989     8650.1201       6.62220235E-04
    1990     8652.6104       7.33761000E-04
    1991     8655.0996       6.84570696E-04
    1992     8657.5898       6.96053263E-04
    1993     8660.0801       6.70255744E-04
    1994     8662.5703       6.79534569E-04
    1995     8665.0596       7.31756620E-04
    1996     8667.5498       6.85631763E-04
    1997     8670.0400       6.74099312E-04
    1998     8672.5303       7.13559391E-04
    1999     8675.0195       7.64446799E-04
    2000     8677.5098       7.50470674E-04
    2001     8680.0000       6.77600270E-04
    2002     8682.4902       7.06206716E-04
    2003     8684.9805       6.88201399E-04
    2004     8687.4697       6.89078646E-04
    2005     8689.9600       6.64933643E-04
    2006     8692.4502       6.50133006E-04
    2007     8694.9404       7.23949284E-04
    2008     8697.4297       6.83320919E-04
    2009     8699.9199       6.81888661E-04
    2010     8702.4102       7.18379335E-04
    2011     8704.9004       6.79428398E-04
    2012     8707.3896       7.40623567E-04
    2013     8709.8799       6.33193355E-04
    2014     8712.3701       6.93202135E-04
    2015     8714.8604       6.87199237E-04
    2016     8717.3496       7.04919396E-04
    2017     8719.8398       7.17996678E-04
    2018     8722.3301       6.92590838E-04
    2019     8724.8203       7.01022043E-04
    2020     8727.3096       7.28993968E-04
    2021     8729.7998       7.20079872E-04
    2022     8732.2900       7.43635988E-04
    2023     8734.7803       7.18208845E-04
    2024     8737.2695       7.42659438E-04
    2025     8739.7598       7.06336228E-04
    2026     8742.2500       7.31718144E-04
    2027     8744.7402       7.13018817E-04
    2028     8747.2305       7.06867897E-04
    2029     8749.7197       7.50591687E-04
    2030     8752.2100       7.07934378E-04
    2031     8754.7002       7.10634398E-04
    2032     8757.1904       6.64319377E-04
    2033     8759.6797       7.58429582E-04
    2034     8762.1699       7.14437920E-04
    2035     8764.6602       6.87445281E-04
    2036     8767.1504       7.95827305E-04
    2037     8769.6396       7.05792860E-04
    2038     8772.1299       7.77043053E-04
    2039     8774.6201       7.22396362E-04
    2040     8777.1104       6.82826154E-04
    2041     8779.5996       7.28208455E-04
    2042     8782.0898       7.33729801E-04
    2043     8784.5801       7.15523725E-04
    2044     8787.0703       6.82766200E-04
    2045     8789.5596       6.71671703E-04
    2046     8792.0498       6.93147944E-04
    2047     8794.5400       6.50405709E-04
    2048     8797.0303       7.06185470E-04

